 *****  MODTRAN3 Version 1.3  12/1/95  *****
0 CARD 1  *****T   1    3    1    0    0    0    0    0    0    0    0    0   -1   0.000  -1.00
 co2mx co2rat ch4rat h2orat t_o3rat s_o3rat scalefreon    1000.0000       3.0303030       0.0000000       0.0000000       0.0000000       0.0000000       0.0000000    
0 CARD 2  *****    0    0    0    0    0    0     0.000     0.000     0.000     0.000     0.000
0 CARD 3  *****    20.000     0.000   180.000     0.000     0.000     0.000    0
0 CARD 4  *****         2      2200         2         3
0 PROGRAM WILL COMPUTE RADIANCE                
0 ATMOSPHERIC MODEL
          TEMPERATURE =    1     TROPICAL MODEL      
          WATER VAPOR =    1     TROPICAL MODEL      
          OZONE       =    1     TROPICAL MODEL      
                      M4 =     1 M5 =     1 M6 =     1 MDEF =     1
0 SLANT PATH TO SPACE
          H1    =     20.000 KM
          HMIN  =      0.000 KM
          ANGLE =    180.000 DEG
0 FREQUENCY RANGE
             IV1 =         2 CM-1  (   5000.00 MICROMETERS)
             IV2 =      2200 CM-1  (      4.55 MICROMETERS)
             IDV =         2 CM-1
           IFWHM =         3 CM-1
1
  ATMOSPHERIC PROFILES

   I     Z       P       T        N2       CNTMSLF MOL SCAT     N-1     O3 (UV)  O2 (UV)
        (KM)    (MB)    (K)            (MOL/CM2 KM)   (-)       (-)  (ATM CM/KM) (ATM CM/KM)

   1     0.00 1013.000  299.7  7.622E-01 0.000E+00 9.112E-01 2.621E-04 0.000E+00 3.342E+04
   2     1.00  904.000  293.7  6.321E-01 0.000E+00 8.298E-01 2.386E-04 0.000E+00 2.927E+04
   3     2.00  805.000  287.7  5.223E-01 0.000E+00 7.543E-01 2.169E-04 0.000E+00 2.562E+04
   4     3.00  715.000  283.7  4.238E-01 0.000E+00 6.794E-01 1.954E-04 0.000E+00 2.219E+04
   5     4.00  633.000  277.0  3.484E-01 0.000E+00 6.160E-01 1.772E-04 0.000E+00 1.945E+04
   6     5.00  559.000  270.3  2.853E-01 0.000E+00 5.575E-01 1.603E-04 0.000E+00 1.703E+04
   7     6.00  492.000  263.6  2.324E-01 0.000E+00 5.032E-01 1.447E-04 0.000E+00 1.490E+04
   8     7.00  432.000  257.0  1.885E-01 0.000E+00 4.531E-01 1.303E-04 0.000E+00 1.302E+04
   9     8.00  378.000  250.3  1.522E-01 0.000E+00 4.071E-01 1.171E-04 0.000E+00 1.138E+04
  10     9.00  329.000  243.6  1.217E-01 0.000E+00 3.641E-01 1.047E-04 0.000E+00 9.902E+03
  11    10.00  286.000  237.0  9.716E-02 0.000E+00 3.253E-01 9.356E-05 0.000E+00 8.629E+03
  12    11.00  247.000  230.1  7.688E-02 0.000E+00 2.894E-01 8.322E-05 0.000E+00 7.496E+03
  13    12.00  213.000  223.6  6.054E-02 0.000E+00 2.568E-01 7.386E-05 0.000E+00 6.507E+03
  14    13.00  182.000  217.0  4.693E-02 0.000E+00 2.261E-01 6.503E-05 0.000E+00 5.608E+03
  15    14.00  156.000  210.3  3.671E-02 0.000E+00 2.000E-01 5.751E-05 0.000E+00 4.870E+03
  16    15.00  132.000  203.7  2.802E-02 0.000E+00 1.747E-01 5.024E-05 0.000E+00 4.178E+03
  17    16.00  111.000  197.0  2.118E-02 0.000E+00 1.519E-01 4.368E-05 0.000E+00 3.572E+03
  18    17.00   93.700  194.8  1.544E-02 0.000E+00 1.297E-01 3.729E-05 0.000E+00 3.000E+03
  19    18.00   78.900  198.8  1.051E-02 0.000E+00 1.070E-01 3.077E-05 0.000E+00 2.433E+03
  20    19.00   66.600  202.7  7.202E-03 0.000E+00 8.857E-02 2.547E-05 0.000E+00 1.986E+03
  21    20.00   56.500  206.7  4.985E-03 0.000E+00 7.369E-02 2.119E-05 0.000E+00 1.633E+03
  22    21.00   48.000  210.7  3.463E-03 0.000E+00 6.141E-02 1.766E-05 0.000E+00 1.348E+03
  23    22.00   40.900  214.6  2.423E-03 0.000E+00 5.138E-02 1.478E-05 0.000E+00 1.119E+03
  24    23.00   35.000  217.0  1.736E-03 0.000E+00 4.348E-02 1.250E-05 0.000E+00 9.409E+02
  25    24.00   30.000  219.2  1.250E-03 0.000E+00 3.689E-02 1.061E-05 0.000E+00 7.942E+02
  26    25.00   25.700  221.4  8.990E-04 0.000E+00 3.129E-02 9.000E-06 0.000E+00 6.705E+02
  27    30.00   12.200  232.3  1.840E-04 0.000E+00 1.416E-02 4.072E-06 0.000E+00 2.992E+02
  28    35.00    6.000  243.1  4.064E-05 0.000E+00 6.654E-03 1.914E-06 0.000E+00 1.397E+02
  29    40.00    3.050  254.0  9.620E-06 0.000E+00 3.237E-03 9.310E-07 0.000E+00 6.779E+01
  30    45.00    1.590  264.8  2.405E-06 0.000E+00 1.619E-03 4.655E-07 0.000E+00 3.385E+01
  31    50.00    0.854  270.2  6.665E-07 0.000E+00 8.520E-04 2.450E-07 0.000E+00 1.781E+01
  32    70.00    0.058  218.9  4.684E-09 0.000E+00 7.143E-05 2.054E-08 0.000E+00 1.492E+00
  33   100.00    0.000  190.7  1.532E-13 0.000E+00 4.085E-07 1.175E-10 0.000E+00 6.532E-03
1
  ATMOSPHERIC PROFILES

   I     Z       P       T      CNTMFRN     HNO3    AEROSOL 1 AEROSOL 2 AEROSOL 3 AEROSOL 4 AER1*RH   CIRRUS         RH
        (KM)    (MB)    (K)   MOL/CM2 KM ATM CM/KM   (-)       (-)       (-)       (-)       (-)       (-)      (PERCNT)

   1     0.00 1013.000  299.7  0.000E+00 0.000E+00 0.000E+00 0.000E+00 0.000E+00 0.000E+00 0.000E+00 0.000E+00 0.000E+00
   2     1.00  904.000  293.7  0.000E+00 0.000E+00 0.000E+00 0.000E+00 0.000E+00 0.000E+00 0.000E+00 0.000E+00 0.000E+00
   3     2.00  805.000  287.7  0.000E+00 0.000E+00 0.000E+00 0.000E+00 0.000E+00 0.000E+00 0.000E+00 0.000E+00 0.000E+00
   4     3.00  715.000  283.7  0.000E+00 0.000E+00 0.000E+00 0.000E+00 0.000E+00 0.000E+00 0.000E+00 0.000E+00 0.000E+00
   5     4.00  633.000  277.0  0.000E+00 0.000E+00 0.000E+00 0.000E+00 0.000E+00 0.000E+00 0.000E+00 0.000E+00 0.000E+00
   6     5.00  559.000  270.3  0.000E+00 0.000E+00 0.000E+00 0.000E+00 0.000E+00 0.000E+00 0.000E+00 0.000E+00 0.000E+00
   7     6.00  492.000  263.6  0.000E+00 0.000E+00 0.000E+00 0.000E+00 0.000E+00 0.000E+00 0.000E+00 0.000E+00 0.000E+00
   8     7.00  432.000  257.0  0.000E+00 0.000E+00 0.000E+00 0.000E+00 0.000E+00 0.000E+00 0.000E+00 0.000E+00 0.000E+00
   9     8.00  378.000  250.3  0.000E+00 0.000E+00 0.000E+00 0.000E+00 0.000E+00 0.000E+00 0.000E+00 0.000E+00 0.000E+00
  10     9.00  329.000  243.6  0.000E+00 0.000E+00 0.000E+00 0.000E+00 0.000E+00 0.000E+00 0.000E+00 0.000E+00 0.000E+00
  11    10.00  286.000  237.0  0.000E+00 0.000E+00 0.000E+00 0.000E+00 0.000E+00 0.000E+00 0.000E+00 0.000E+00 0.000E+00
  12    11.00  247.000  230.1  0.000E+00 0.000E+00 0.000E+00 0.000E+00 0.000E+00 0.000E+00 0.000E+00 0.000E+00 0.000E+00
  13    12.00  213.000  223.6  0.000E+00 0.000E+00 0.000E+00 0.000E+00 0.000E+00 0.000E+00 0.000E+00 0.000E+00 0.000E+00
  14    13.00  182.000  217.0  0.000E+00 0.000E+00 0.000E+00 0.000E+00 0.000E+00 0.000E+00 0.000E+00 0.000E+00 0.000E+00
  15    14.00  156.000  210.3  0.000E+00 0.000E+00 0.000E+00 0.000E+00 0.000E+00 0.000E+00 0.000E+00 0.000E+00 0.000E+00
  16    15.00  132.000  203.7  0.000E+00 0.000E+00 0.000E+00 0.000E+00 0.000E+00 0.000E+00 0.000E+00 0.000E+00 0.000E+00
  17    16.00  111.000  197.0  0.000E+00 0.000E+00 0.000E+00 0.000E+00 0.000E+00 0.000E+00 0.000E+00 0.000E+00 0.000E+00
  18    17.00   93.700  194.8  0.000E+00 0.000E+00 0.000E+00 0.000E+00 0.000E+00 0.000E+00 0.000E+00 0.000E+00 0.000E+00
  19    18.00   78.900  198.8  0.000E+00 0.000E+00 0.000E+00 0.000E+00 0.000E+00 0.000E+00 0.000E+00 0.000E+00 0.000E+00
  20    19.00   66.600  202.7  0.000E+00 0.000E+00 0.000E+00 0.000E+00 0.000E+00 0.000E+00 0.000E+00 0.000E+00 0.000E+00
  21    20.00   56.500  206.7  0.000E+00 0.000E+00 0.000E+00 0.000E+00 0.000E+00 0.000E+00 0.000E+00 0.000E+00 0.000E+00
  22    21.00   48.000  210.7  0.000E+00 0.000E+00 0.000E+00 0.000E+00 0.000E+00 0.000E+00 0.000E+00 0.000E+00 0.000E+00
  23    22.00   40.900  214.6  0.000E+00 0.000E+00 0.000E+00 0.000E+00 0.000E+00 0.000E+00 0.000E+00 0.000E+00 0.000E+00
  24    23.00   35.000  217.0  0.000E+00 0.000E+00 0.000E+00 0.000E+00 0.000E+00 0.000E+00 0.000E+00 0.000E+00 0.000E+00
  25    24.00   30.000  219.2  0.000E+00 0.000E+00 0.000E+00 0.000E+00 0.000E+00 0.000E+00 0.000E+00 0.000E+00 0.000E+00
  26    25.00   25.700  221.4  0.000E+00 0.000E+00 0.000E+00 0.000E+00 0.000E+00 0.000E+00 0.000E+00 0.000E+00 0.000E+00
  27    30.00   12.200  232.3  0.000E+00 0.000E+00 0.000E+00 0.000E+00 0.000E+00 0.000E+00 0.000E+00 0.000E+00 0.000E+00
  28    35.00    6.000  243.1  0.000E+00 0.000E+00 0.000E+00 0.000E+00 0.000E+00 0.000E+00 0.000E+00 0.000E+00 0.000E+00
  29    40.00    3.050  254.0  0.000E+00 0.000E+00 0.000E+00 0.000E+00 0.000E+00 0.000E+00 0.000E+00 0.000E+00 0.000E+00
  30    45.00    1.590  264.8  0.000E+00 0.000E+00 0.000E+00 0.000E+00 0.000E+00 0.000E+00 0.000E+00 0.000E+00 0.000E+00
  31    50.00    0.854  270.2  0.000E+00 0.000E+00 0.000E+00 0.000E+00 0.000E+00 0.000E+00 0.000E+00 0.000E+00 0.000E+00
  32    70.00    0.058  218.9  0.000E+00 0.000E+00 0.000E+00 0.000E+00 0.000E+00 0.000E+00 0.000E+00 0.000E+00 0.000E+00
  33   100.00    0.000  190.7  0.000E+00 0.000E+00 0.000E+00 0.000E+00 0.000E+00 0.000E+00 0.000E+00 0.000E+00 0.000E+00
1
  ATMOSPHERIC PROFILES

   I      Z       P       T      H2O      O3       CO2      CO       CH4      N2O      O2       NH3      NO       NO2      SO2
         (KM)    (MB)    (K)  (                                    MBAR                                                       )
   1     0.00 1013.000  299.7  0.00E+00 0.00E+00 1.00E+03 0.00E+00 0.00E+00 0.00E+00 2.09E+05 0.00E+00 0.00E+00 0.00E+00 0.00E+00
   2     1.00  904.000  293.7  0.00E+00 0.00E+00 1.00E+03 0.00E+00 0.00E+00 0.00E+00 2.09E+05 0.00E+00 0.00E+00 0.00E+00 0.00E+00
   3     2.00  805.000  287.7  0.00E+00 0.00E+00 1.00E+03 0.00E+00 0.00E+00 0.00E+00 2.09E+05 0.00E+00 0.00E+00 0.00E+00 0.00E+00
   4     3.00  715.000  283.7  0.00E+00 0.00E+00 1.00E+03 0.00E+00 0.00E+00 0.00E+00 2.09E+05 0.00E+00 0.00E+00 0.00E+00 0.00E+00
   5     4.00  633.000  277.0  0.00E+00 0.00E+00 1.00E+03 0.00E+00 0.00E+00 0.00E+00 2.09E+05 0.00E+00 0.00E+00 0.00E+00 0.00E+00
   6     5.00  559.000  270.3  0.00E+00 0.00E+00 1.00E+03 0.00E+00 0.00E+00 0.00E+00 2.09E+05 0.00E+00 0.00E+00 0.00E+00 0.00E+00
   7     6.00  492.000  263.6  0.00E+00 0.00E+00 1.00E+03 0.00E+00 0.00E+00 0.00E+00 2.09E+05 0.00E+00 0.00E+00 0.00E+00 0.00E+00
   8     7.00  432.000  257.0  0.00E+00 0.00E+00 1.00E+03 0.00E+00 0.00E+00 0.00E+00 2.09E+05 0.00E+00 0.00E+00 0.00E+00 0.00E+00
   9     8.00  378.000  250.3  0.00E+00 0.00E+00 1.00E+03 0.00E+00 0.00E+00 0.00E+00 2.09E+05 0.00E+00 0.00E+00 0.00E+00 0.00E+00
  10     9.00  329.000  243.6  0.00E+00 0.00E+00 1.00E+03 0.00E+00 0.00E+00 0.00E+00 2.09E+05 0.00E+00 0.00E+00 0.00E+00 0.00E+00
  11    10.00  286.000  237.0  0.00E+00 0.00E+00 1.00E+03 0.00E+00 0.00E+00 0.00E+00 2.09E+05 0.00E+00 0.00E+00 0.00E+00 0.00E+00
  12    11.00  247.000  230.1  0.00E+00 0.00E+00 1.00E+03 0.00E+00 0.00E+00 0.00E+00 2.09E+05 0.00E+00 0.00E+00 0.00E+00 0.00E+00
  13    12.00  213.000  223.6  0.00E+00 0.00E+00 1.00E+03 0.00E+00 0.00E+00 0.00E+00 2.09E+05 0.00E+00 0.00E+00 0.00E+00 0.00E+00
  14    13.00  182.000  217.0  0.00E+00 0.00E+00 1.00E+03 0.00E+00 0.00E+00 0.00E+00 2.09E+05 0.00E+00 0.00E+00 0.00E+00 0.00E+00
  15    14.00  156.000  210.3  0.00E+00 0.00E+00 1.00E+03 0.00E+00 0.00E+00 0.00E+00 2.09E+05 0.00E+00 0.00E+00 0.00E+00 0.00E+00
  16    15.00  132.000  203.7  0.00E+00 0.00E+00 1.00E+03 0.00E+00 0.00E+00 0.00E+00 2.09E+05 0.00E+00 0.00E+00 0.00E+00 0.00E+00
  17    16.00  111.000  197.0  0.00E+00 0.00E+00 1.00E+03 0.00E+00 0.00E+00 0.00E+00 2.09E+05 0.00E+00 0.00E+00 0.00E+00 0.00E+00
  18    17.00   93.700  194.8  0.00E+00 0.00E+00 1.00E+03 0.00E+00 0.00E+00 0.00E+00 2.09E+05 0.00E+00 0.00E+00 0.00E+00 0.00E+00
  19    18.00   78.900  198.8  0.00E+00 0.00E+00 1.00E+03 0.00E+00 0.00E+00 0.00E+00 2.09E+05 0.00E+00 0.00E+00 0.00E+00 0.00E+00
  20    19.00   66.600  202.7  0.00E+00 0.00E+00 1.00E+03 0.00E+00 0.00E+00 0.00E+00 2.09E+05 0.00E+00 0.00E+00 0.00E+00 0.00E+00
  21    20.00   56.500  206.7  0.00E+00 0.00E+00 1.00E+03 0.00E+00 0.00E+00 0.00E+00 2.09E+05 0.00E+00 0.00E+00 0.00E+00 0.00E+00
  22    21.00   48.000  210.7  0.00E+00 0.00E+00 1.00E+03 0.00E+00 0.00E+00 0.00E+00 2.09E+05 0.00E+00 0.00E+00 0.00E+00 0.00E+00
  23    22.00   40.900  214.6  0.00E+00 0.00E+00 1.00E+03 0.00E+00 0.00E+00 0.00E+00 2.09E+05 0.00E+00 0.00E+00 0.00E+00 0.00E+00
  24    23.00   35.000  217.0  0.00E+00 0.00E+00 1.00E+03 0.00E+00 0.00E+00 0.00E+00 2.09E+05 0.00E+00 0.00E+00 0.00E+00 0.00E+00
  25    24.00   30.000  219.2  0.00E+00 0.00E+00 1.00E+03 0.00E+00 0.00E+00 0.00E+00 2.09E+05 0.00E+00 0.00E+00 0.00E+00 0.00E+00
  26    25.00   25.700  221.4  0.00E+00 0.00E+00 1.00E+03 0.00E+00 0.00E+00 0.00E+00 2.09E+05 0.00E+00 0.00E+00 0.00E+00 0.00E+00
  27    30.00   12.200  232.3  0.00E+00 0.00E+00 1.00E+03 0.00E+00 0.00E+00 0.00E+00 2.09E+05 0.00E+00 0.00E+00 0.00E+00 0.00E+00
  28    35.00    6.000  243.1  0.00E+00 0.00E+00 1.00E+03 0.00E+00 0.00E+00 0.00E+00 2.09E+05 0.00E+00 0.00E+00 0.00E+00 0.00E+00
  29    40.00    3.050  254.0  0.00E+00 0.00E+00 1.00E+03 0.00E+00 0.00E+00 0.00E+00 2.09E+05 0.00E+00 0.00E+00 0.00E+00 0.00E+00
  30    45.00    1.590  264.8  0.00E+00 0.00E+00 1.00E+03 0.00E+00 0.00E+00 0.00E+00 2.09E+05 0.00E+00 0.00E+00 0.00E+00 0.00E+00
  31    50.00    0.854  270.2  0.00E+00 0.00E+00 1.00E+03 0.00E+00 0.00E+00 0.00E+00 2.09E+05 0.00E+00 0.00E+00 0.00E+00 0.00E+00
  32    70.00    0.058  218.9  0.00E+00 0.00E+00 1.00E+03 0.00E+00 0.00E+00 0.00E+00 2.09E+05 0.00E+00 0.00E+00 0.00E+00 0.00E+00
  33   100.00    0.000  190.7  0.00E+00 0.00E+00 5.91E+02 0.00E+00 0.00E+00 0.00E+00 1.60E+05 0.00E+00 0.00E+00 0.00E+00 0.00E+00
1
  ATMOSPHERIC PROFILES

   I      Z       P       T     CFC-11   CFC-12   CFC-13   CFC-14   CFC-22   CFC-113  CFC-114  CFC-115  CLONO2    HNO4    CHCL2F 
                                 CCL4     N2O5  
         (KM)    (MB)    (K)  (                                 ATM CM/KM                                                     )
   1     0.00 1013.000  299.7  0.00E+00 0.00E+00 0.00E+00 0.00E+00 0.00E+00 0.00E+00 0.00E+00 0.00E+00 0.00E+00 0.00E+00 0.00E+00
                               0.00E+00 0.00E+00
   2     1.00  904.000  293.7  0.00E+00 0.00E+00 0.00E+00 0.00E+00 0.00E+00 0.00E+00 0.00E+00 0.00E+00 0.00E+00 0.00E+00 0.00E+00
                               0.00E+00 0.00E+00
   3     2.00  805.000  287.7  0.00E+00 0.00E+00 0.00E+00 0.00E+00 0.00E+00 0.00E+00 0.00E+00 0.00E+00 0.00E+00 0.00E+00 0.00E+00
                               0.00E+00 0.00E+00
   4     3.00  715.000  283.7  0.00E+00 0.00E+00 0.00E+00 0.00E+00 0.00E+00 0.00E+00 0.00E+00 0.00E+00 0.00E+00 0.00E+00 0.00E+00
                               0.00E+00 0.00E+00
   5     4.00  633.000  277.0  0.00E+00 0.00E+00 0.00E+00 0.00E+00 0.00E+00 0.00E+00 0.00E+00 0.00E+00 0.00E+00 0.00E+00 0.00E+00
                               0.00E+00 0.00E+00
   6     5.00  559.000  270.3  0.00E+00 0.00E+00 0.00E+00 0.00E+00 0.00E+00 0.00E+00 0.00E+00 0.00E+00 0.00E+00 0.00E+00 0.00E+00
                               0.00E+00 0.00E+00
   7     6.00  492.000  263.6  0.00E+00 0.00E+00 0.00E+00 0.00E+00 0.00E+00 0.00E+00 0.00E+00 0.00E+00 0.00E+00 0.00E+00 0.00E+00
                               0.00E+00 0.00E+00
   8     7.00  432.000  257.0  0.00E+00 0.00E+00 0.00E+00 0.00E+00 0.00E+00 0.00E+00 0.00E+00 0.00E+00 0.00E+00 0.00E+00 0.00E+00
                               0.00E+00 0.00E+00
   9     8.00  378.000  250.3  0.00E+00 0.00E+00 0.00E+00 0.00E+00 0.00E+00 0.00E+00 0.00E+00 0.00E+00 0.00E+00 0.00E+00 0.00E+00
                               0.00E+00 0.00E+00
  10     9.00  329.000  243.6  0.00E+00 0.00E+00 0.00E+00 0.00E+00 0.00E+00 0.00E+00 0.00E+00 0.00E+00 0.00E+00 0.00E+00 0.00E+00
                               0.00E+00 0.00E+00
  11    10.00  286.000  237.0  0.00E+00 0.00E+00 0.00E+00 0.00E+00 0.00E+00 0.00E+00 0.00E+00 0.00E+00 0.00E+00 0.00E+00 0.00E+00
                               0.00E+00 0.00E+00
  12    11.00  247.000  230.1  0.00E+00 0.00E+00 0.00E+00 0.00E+00 0.00E+00 0.00E+00 0.00E+00 0.00E+00 0.00E+00 0.00E+00 0.00E+00
                               0.00E+00 0.00E+00
  13    12.00  213.000  223.6  0.00E+00 0.00E+00 0.00E+00 0.00E+00 0.00E+00 0.00E+00 0.00E+00 0.00E+00 0.00E+00 0.00E+00 0.00E+00
                               0.00E+00 0.00E+00
  14    13.00  182.000  217.0  0.00E+00 0.00E+00 0.00E+00 0.00E+00 0.00E+00 0.00E+00 0.00E+00 0.00E+00 0.00E+00 0.00E+00 0.00E+00
                               0.00E+00 0.00E+00
  15    14.00  156.000  210.3  0.00E+00 0.00E+00 0.00E+00 0.00E+00 0.00E+00 0.00E+00 0.00E+00 0.00E+00 0.00E+00 0.00E+00 0.00E+00
                               0.00E+00 0.00E+00
  16    15.00  132.000  203.7  0.00E+00 0.00E+00 0.00E+00 0.00E+00 0.00E+00 0.00E+00 0.00E+00 0.00E+00 0.00E+00 0.00E+00 0.00E+00
                               0.00E+00 0.00E+00
  17    16.00  111.000  197.0  0.00E+00 0.00E+00 0.00E+00 0.00E+00 0.00E+00 0.00E+00 0.00E+00 0.00E+00 0.00E+00 0.00E+00 0.00E+00
                               0.00E+00 0.00E+00
  18    17.00   93.700  194.8  0.00E+00 0.00E+00 0.00E+00 0.00E+00 0.00E+00 0.00E+00 0.00E+00 0.00E+00 0.00E+00 0.00E+00 0.00E+00
                               0.00E+00 0.00E+00
  19    18.00   78.900  198.8  0.00E+00 0.00E+00 0.00E+00 0.00E+00 0.00E+00 0.00E+00 0.00E+00 0.00E+00 0.00E+00 0.00E+00 0.00E+00
                               0.00E+00 0.00E+00
  20    19.00   66.600  202.7  0.00E+00 0.00E+00 0.00E+00 0.00E+00 0.00E+00 0.00E+00 0.00E+00 0.00E+00 0.00E+00 0.00E+00 0.00E+00
                               0.00E+00 0.00E+00
  21    20.00   56.500  206.7  0.00E+00 0.00E+00 0.00E+00 0.00E+00 0.00E+00 0.00E+00 0.00E+00 0.00E+00 0.00E+00 0.00E+00 0.00E+00
                               0.00E+00 0.00E+00
  22    21.00   48.000  210.7  0.00E+00 0.00E+00 0.00E+00 0.00E+00 0.00E+00 0.00E+00 0.00E+00 0.00E+00 0.00E+00 0.00E+00 0.00E+00
                               0.00E+00 0.00E+00
  23    22.00   40.900  214.6  0.00E+00 0.00E+00 0.00E+00 0.00E+00 0.00E+00 0.00E+00 0.00E+00 0.00E+00 0.00E+00 0.00E+00 0.00E+00
                               0.00E+00 0.00E+00
  24    23.00   35.000  217.0  0.00E+00 0.00E+00 0.00E+00 0.00E+00 0.00E+00 0.00E+00 0.00E+00 0.00E+00 0.00E+00 0.00E+00 0.00E+00
                               0.00E+00 0.00E+00
  25    24.00   30.000  219.2  0.00E+00 0.00E+00 0.00E+00 0.00E+00 0.00E+00 0.00E+00 0.00E+00 0.00E+00 0.00E+00 0.00E+00 0.00E+00
                               0.00E+00 0.00E+00
  26    25.00   25.700  221.4  0.00E+00 0.00E+00 0.00E+00 0.00E+00 0.00E+00 0.00E+00 0.00E+00 0.00E+00 0.00E+00 0.00E+00 0.00E+00
                               0.00E+00 0.00E+00
  27    30.00   12.200  232.3  0.00E+00 0.00E+00 0.00E+00 0.00E+00 0.00E+00 0.00E+00 0.00E+00 0.00E+00 0.00E+00 0.00E+00 0.00E+00
                               0.00E+00 0.00E+00
  28    35.00    6.000  243.1  0.00E+00 0.00E+00 0.00E+00 0.00E+00 0.00E+00 0.00E+00 0.00E+00 0.00E+00 0.00E+00 0.00E+00 0.00E+00
                               0.00E+00 0.00E+00
  29    40.00    3.050  254.0  0.00E+00 0.00E+00 0.00E+00 0.00E+00 0.00E+00 0.00E+00 0.00E+00 0.00E+00 0.00E+00 0.00E+00 0.00E+00
                               0.00E+00 0.00E+00
  30    45.00    1.590  264.8  0.00E+00 0.00E+00 0.00E+00 0.00E+00 0.00E+00 0.00E+00 0.00E+00 0.00E+00 0.00E+00 0.00E+00 0.00E+00
                               0.00E+00 0.00E+00
  31    50.00    0.854  270.2  0.00E+00 0.00E+00 0.00E+00 0.00E+00 0.00E+00 0.00E+00 0.00E+00 0.00E+00 0.00E+00 0.00E+00 0.00E+00
                               0.00E+00 0.00E+00
  32    70.00    0.058  218.9  0.00E+00 0.00E+00 0.00E+00 0.00E+00 0.00E+00 0.00E+00 0.00E+00 0.00E+00 0.00E+00 0.00E+00 0.00E+00
                               0.00E+00 0.00E+00
  33   100.00    0.000  190.7  0.00E+00 0.00E+00 0.00E+00 0.00E+00 0.00E+00 0.00E+00 0.00E+00 0.00E+00 0.00E+00 0.00E+00 0.00E+00
                               0.00E+00 0.00E+00


 CASE 3A: GIVEN H1,H2=SPACE,ANGLE



 TANGENT PATH WITH H1 =     20.000 AND ANGLE =    180.000 INTERSECTS THE EARTH

          H2 HAS BEEN RESET TO 0.0 AND LEN TO 0



 SLANT PATH PARAMETERS IN STANDARD FORM

          H1      =     20.000 KM
          H2      =      0.000 KM
          ANGLE   =    180.000 DEG
          PHI     =      0.000 DEG
          HMIN    =      0.000 KM
          LEN     =          0
1CALCULATION OF THE REFRACTED PATH THROUGH THE ATMOSPHERE


  I       ALTITUDE        THETA  DRANGE    RANGE    DBETA     BETA     PHI     DBEND  BENDING    PBAR    TBAR   RHOBAR
      FROM       TO
      (KM)      (KM)      (DEG)    (KM)     (KM)    (DEG)    (DEG)    (DEG)    (DEG)    (DEG)    (MB)    (K)  (GM CM-3)

          H2 TO H1

  1    0.000    1.000    0.000    1.000    1.000    0.000    0.000  180.000    0.000    0.000  958.316  296.74 1.12E-03
  2    1.000    2.000    0.000    1.000    2.000    0.000    0.000  180.000    0.000    0.000  854.330  290.74 1.02E-03
  3    2.000    3.000    0.000    1.000    3.000    0.000    0.000  180.000    0.000    0.000  759.895  285.73 9.26E-04
  4    3.000    4.000    0.000    1.000    4.000    0.000    0.000  180.000    0.000    0.000  673.837  280.39 8.36E-04
  5    4.000    5.000    0.000    1.000    5.000    0.000    0.000  180.000    0.000    0.000  595.849  273.69 7.58E-04
  6    5.000    6.000    0.000    1.000    6.000    0.000    0.000  180.000    0.000    0.000  525.360  266.99 6.85E-04
  7    6.000    7.000    0.000    1.000    7.000    0.000    0.000  180.000    0.000    0.000  461.873  260.34 6.17E-04
  8    7.000    8.000    0.000    1.000    8.000    0.000    0.000  180.000    0.000    0.000  404.881  253.70 5.55E-04
  9    8.000    9.000    0.000    1.000    9.000    0.000    0.000  180.000    0.000    0.000  353.389  247.00 4.98E-04
 10    9.000   10.000    0.000    1.000   10.000    0.000    0.000  180.000    0.000    0.000  307.402  240.35 4.45E-04
 11   10.000   11.000    0.000    1.000   11.000    0.000    0.000  180.000    0.000    0.000  266.404  233.60 3.97E-04
 12   11.000   12.000    0.000    1.000   12.000    0.000    0.000  180.000    0.000    0.000  229.919  226.90 3.52E-04
 13   12.000   13.000    0.000    1.000   13.000    0.000    0.000  180.000    0.000    0.000  197.423  220.35 3.12E-04
 14   13.000   14.000    0.000    1.000   14.000    0.000    0.000  180.000    0.000    0.000  168.932  213.70 2.75E-04
 15   14.000   15.000    0.000    1.000   15.000    0.000    0.000  180.000    0.000    0.000  143.936  207.06 2.42E-04
 16   15.000   16.000    0.000    1.000   16.000    0.000    0.000  180.000    0.000    0.000  121.442  200.41 2.11E-04
 17   16.000   17.000    0.000    1.000   17.000    0.000    0.000  180.000    0.000    0.000  102.334  195.93 1.82E-04
 18   17.000   18.000    0.000    1.000   18.000    0.000    0.000  180.000    0.000    0.000   86.325  196.73 1.52E-04
 19   18.000   19.000    0.000    1.000   19.000    0.000    0.000  180.000    0.000    0.000   72.770  200.68 1.26E-04
 20   19.000   20.000    0.000    1.000   20.000    0.000    0.000  180.000    0.000    0.000   61.566  204.63 1.05E-04




1CUMULATIVE ABSORBER AMOUNTS FOR THE PATH FROM H1 TO Z

  J     Z        TBAR     HNO3        O3 UV      CNTMSLF1   CNTMSLF2    CNTMFRN      O2
       (KM)       (K)   (ATM CM)    (ATM CM)    (MOL CM-2)  (MOL CM-2)  (MOL CM-2)(MOL CM-2)

  1   19.000   204.63   0.000E+00   0.000E+00   0.000E+00   0.000E+00   0.000E+00   1.804E+03
  2   18.000   200.68   0.000E+00   0.000E+00   0.000E+00   0.000E+00   0.000E+00   4.006E+03
  3   17.000   196.73   0.000E+00   0.000E+00   0.000E+00   0.000E+00   0.000E+00   6.712E+03
  4   16.000   195.93   0.000E+00   0.000E+00   0.000E+00   0.000E+00   0.000E+00   9.990E+03
  5   15.000   200.41   0.000E+00   0.000E+00   0.000E+00   0.000E+00   0.000E+00   1.386E+04
  6   14.000   207.06   0.000E+00   0.000E+00   0.000E+00   0.000E+00   0.000E+00   1.837E+04
  7   13.000   213.70   0.000E+00   0.000E+00   0.000E+00   0.000E+00   0.000E+00   2.360E+04
  8   12.000   220.35   0.000E+00   0.000E+00   0.000E+00   0.000E+00   0.000E+00   2.965E+04
  9   11.000   226.90   0.000E+00   0.000E+00   0.000E+00   0.000E+00   0.000E+00   3.664E+04
 10   10.000   233.60   0.000E+00   0.000E+00   0.000E+00   0.000E+00   0.000E+00   4.469E+04
 11    9.000   240.35   0.000E+00   0.000E+00   0.000E+00   0.000E+00   0.000E+00   5.394E+04
 12    8.000   247.00   0.000E+00   0.000E+00   0.000E+00   0.000E+00   0.000E+00   6.456E+04
 13    7.000   253.70   0.000E+00   0.000E+00   0.000E+00   0.000E+00   0.000E+00   7.674E+04
 14    6.000   260.34   0.000E+00   0.000E+00   0.000E+00   0.000E+00   0.000E+00   9.068E+04
 15    5.000   266.99   0.000E+00   0.000E+00   0.000E+00   0.000E+00   0.000E+00   1.066E+05
 16    4.000   273.69   0.000E+00   0.000E+00   0.000E+00   0.000E+00   0.000E+00   1.248E+05
 17    3.000   280.39   0.000E+00   0.000E+00   0.000E+00   0.000E+00   0.000E+00   1.456E+05
 18    2.000   285.73   0.000E+00   0.000E+00   0.000E+00   0.000E+00   0.000E+00   1.695E+05
 19    1.000   290.74   0.000E+00   0.000E+00   0.000E+00   0.000E+00   0.000E+00   1.969E+05
 20    0.000   296.74   0.000E+00   0.000E+00   0.000E+00   0.000E+00   0.000E+00   2.282E+05



1 J     Z       N2 CONT    MOL SCAT       AER 1       AER 2       AER 3       AER 4       CIRRUS
       (KM)

  1   19.000   6.026E-03   8.090E-02   0.000E+00   0.000E+00   0.000E+00   0.000E+00   0.000E+00
  2   18.000   1.478E-02   1.784E-01   0.000E+00   0.000E+00   0.000E+00   0.000E+00   0.000E+00
  3   17.000   2.759E-02   2.964E-01   0.000E+00   0.000E+00   0.000E+00   0.000E+00   0.000E+00
  4   16.000   4.575E-02   4.368E-01   0.000E+00   0.000E+00   0.000E+00   0.000E+00   0.000E+00
  5   15.000   7.019E-02   5.999E-01   0.000E+00   0.000E+00   0.000E+00   0.000E+00   0.000E+00
  6   14.000   1.024E-01   7.869E-01   0.000E+00   0.000E+00   0.000E+00   0.000E+00   0.000E+00
  7   13.000   1.440E-01   9.997E-01   0.000E+00   0.000E+00   0.000E+00   0.000E+00   0.000E+00
  8   12.000   1.974E-01   1.241E+00   0.000E+00   0.000E+00   0.000E+00   0.000E+00   0.000E+00
  9   11.000   2.658E-01   1.514E+00   0.000E+00   0.000E+00   0.000E+00   0.000E+00   0.000E+00
 10   10.000   3.524E-01   1.821E+00   0.000E+00   0.000E+00   0.000E+00   0.000E+00   0.000E+00
 11    9.000   4.614E-01   2.165E+00   0.000E+00   0.000E+00   0.000E+00   0.000E+00   0.000E+00
 12    8.000   5.978E-01   2.550E+00   0.000E+00   0.000E+00   0.000E+00   0.000E+00   0.000E+00
 13    7.000   7.674E-01   2.980E+00   0.000E+00   0.000E+00   0.000E+00   0.000E+00   0.000E+00
 14    6.000   9.771E-01   3.458E+00   0.000E+00   0.000E+00   0.000E+00   0.000E+00   0.000E+00
 15    5.000   1.235E+00   3.987E+00   0.000E+00   0.000E+00   0.000E+00   0.000E+00   0.000E+00
 16    4.000   1.551E+00   4.574E+00   0.000E+00   0.000E+00   0.000E+00   0.000E+00   0.000E+00
 17    3.000   1.936E+00   5.221E+00   0.000E+00   0.000E+00   0.000E+00   0.000E+00   0.000E+00
 18    2.000   2.407E+00   5.937E+00   0.000E+00   0.000E+00   0.000E+00   0.000E+00   0.000E+00
 19    1.000   2.983E+00   6.729E+00   0.000E+00   0.000E+00   0.000E+00   0.000E+00   0.000E+00
 20    0.000   3.678E+00   7.598E+00   0.000E+00   0.000E+00   0.000E+00   0.000E+00   0.000E+00



1  J    Z       H2O       O3        CO2       CO        CH4       N2O       O2        NH3       NO        NO2       SO2
      (KM)    (                                                      ATM CM                                             )

   1   19.00  0.00E+00  0.00E+00  8.08E+00  0.00E+00  0.00E+00  0.00E+00  1.69E+03  0.00E+00  0.00E+00  0.00E+00  0.00E+00
   2   18.00  0.00E+00  0.00E+00  1.78E+01  0.00E+00  0.00E+00  0.00E+00  3.73E+03  0.00E+00  0.00E+00  0.00E+00  0.00E+00
   3   17.00  0.00E+00  0.00E+00  2.96E+01  0.00E+00  0.00E+00  0.00E+00  6.19E+03  0.00E+00  0.00E+00  0.00E+00  0.00E+00
   4   16.00  0.00E+00  0.00E+00  4.37E+01  0.00E+00  0.00E+00  0.00E+00  9.12E+03  0.00E+00  0.00E+00  0.00E+00  0.00E+00
   5   15.00  0.00E+00  0.00E+00  5.99E+01  0.00E+00  0.00E+00  0.00E+00  1.25E+04  0.00E+00  0.00E+00  0.00E+00  0.00E+00
   6   14.00  0.00E+00  0.00E+00  7.86E+01  0.00E+00  0.00E+00  0.00E+00  1.64E+04  0.00E+00  0.00E+00  0.00E+00  0.00E+00
   7   13.00  0.00E+00  0.00E+00  9.99E+01  0.00E+00  0.00E+00  0.00E+00  2.09E+04  0.00E+00  0.00E+00  0.00E+00  0.00E+00
   8   12.00  0.00E+00  0.00E+00  1.24E+02  0.00E+00  0.00E+00  0.00E+00  2.59E+04  0.00E+00  0.00E+00  0.00E+00  0.00E+00
   9   11.00  0.00E+00  0.00E+00  1.51E+02  0.00E+00  0.00E+00  0.00E+00  3.16E+04  0.00E+00  0.00E+00  0.00E+00  0.00E+00
  10   10.00  0.00E+00  0.00E+00  1.82E+02  0.00E+00  0.00E+00  0.00E+00  3.80E+04  0.00E+00  0.00E+00  0.00E+00  0.00E+00
  11    9.00  0.00E+00  0.00E+00  2.16E+02  0.00E+00  0.00E+00  0.00E+00  4.52E+04  0.00E+00  0.00E+00  0.00E+00  0.00E+00
  12    8.00  0.00E+00  0.00E+00  2.55E+02  0.00E+00  0.00E+00  0.00E+00  5.33E+04  0.00E+00  0.00E+00  0.00E+00  0.00E+00
  13    7.00  0.00E+00  0.00E+00  2.98E+02  0.00E+00  0.00E+00  0.00E+00  6.22E+04  0.00E+00  0.00E+00  0.00E+00  0.00E+00
  14    6.00  0.00E+00  0.00E+00  3.46E+02  0.00E+00  0.00E+00  0.00E+00  7.22E+04  0.00E+00  0.00E+00  0.00E+00  0.00E+00
  15    5.00  0.00E+00  0.00E+00  3.98E+02  0.00E+00  0.00E+00  0.00E+00  8.33E+04  0.00E+00  0.00E+00  0.00E+00  0.00E+00
  16    4.00  0.00E+00  0.00E+00  4.57E+02  0.00E+00  0.00E+00  0.00E+00  9.55E+04  0.00E+00  0.00E+00  0.00E+00  0.00E+00
  17    3.00  0.00E+00  0.00E+00  5.22E+02  0.00E+00  0.00E+00  0.00E+00  1.09E+05  0.00E+00  0.00E+00  0.00E+00  0.00E+00
  18    2.00  0.00E+00  0.00E+00  5.93E+02  0.00E+00  0.00E+00  0.00E+00  1.24E+05  0.00E+00  0.00E+00  0.00E+00  0.00E+00
  19    1.00  0.00E+00  0.00E+00  6.72E+02  0.00E+00  0.00E+00  0.00E+00  1.41E+05  0.00E+00  0.00E+00  0.00E+00  0.00E+00
  20    0.00  0.00E+00  0.00E+00  7.59E+02  0.00E+00  0.00E+00  0.00E+00  1.59E+05  0.00E+00  0.00E+00  0.00E+00  0.00E+00



1  J    Z      CFC-11    CFC-12    CFC-13    CFC-14    CFC-22    CFC-113   CFC-114   CFC-115   CLONO2     HNO4     CHCL2F 
                CCL4      N2O5  
      (KM)    (                                                   ATM CM                                                )

   1   19.00  0.00E+00  0.00E+00  0.00E+00  0.00E+00  0.00E+00  0.00E+00  0.00E+00  0.00E+00  0.00E+00  0.00E+00  0.00E+00
              0.00E+00  0.00E+00
   2   18.00  0.00E+00  0.00E+00  0.00E+00  0.00E+00  0.00E+00  0.00E+00  0.00E+00  0.00E+00  0.00E+00  0.00E+00  0.00E+00
              0.00E+00  0.00E+00
   3   17.00  0.00E+00  0.00E+00  0.00E+00  0.00E+00  0.00E+00  0.00E+00  0.00E+00  0.00E+00  0.00E+00  0.00E+00  0.00E+00
              0.00E+00  0.00E+00
   4   16.00  0.00E+00  0.00E+00  0.00E+00  0.00E+00  0.00E+00  0.00E+00  0.00E+00  0.00E+00  0.00E+00  0.00E+00  0.00E+00
              0.00E+00  0.00E+00
   5   15.00  0.00E+00  0.00E+00  0.00E+00  0.00E+00  0.00E+00  0.00E+00  0.00E+00  0.00E+00  0.00E+00  0.00E+00  0.00E+00
              0.00E+00  0.00E+00
   6   14.00  0.00E+00  0.00E+00  0.00E+00  0.00E+00  0.00E+00  0.00E+00  0.00E+00  0.00E+00  0.00E+00  0.00E+00  0.00E+00
              0.00E+00  0.00E+00
   7   13.00  0.00E+00  0.00E+00  0.00E+00  0.00E+00  0.00E+00  0.00E+00  0.00E+00  0.00E+00  0.00E+00  0.00E+00  0.00E+00
              0.00E+00  0.00E+00
   8   12.00  0.00E+00  0.00E+00  0.00E+00  0.00E+00  0.00E+00  0.00E+00  0.00E+00  0.00E+00  0.00E+00  0.00E+00  0.00E+00
              0.00E+00  0.00E+00
   9   11.00  0.00E+00  0.00E+00  0.00E+00  0.00E+00  0.00E+00  0.00E+00  0.00E+00  0.00E+00  0.00E+00  0.00E+00  0.00E+00
              0.00E+00  0.00E+00
  10   10.00  0.00E+00  0.00E+00  0.00E+00  0.00E+00  0.00E+00  0.00E+00  0.00E+00  0.00E+00  0.00E+00  0.00E+00  0.00E+00
              0.00E+00  0.00E+00
  11    9.00  0.00E+00  0.00E+00  0.00E+00  0.00E+00  0.00E+00  0.00E+00  0.00E+00  0.00E+00  0.00E+00  0.00E+00  0.00E+00
              0.00E+00  0.00E+00
  12    8.00  0.00E+00  0.00E+00  0.00E+00  0.00E+00  0.00E+00  0.00E+00  0.00E+00  0.00E+00  0.00E+00  0.00E+00  0.00E+00
              0.00E+00  0.00E+00
  13    7.00  0.00E+00  0.00E+00  0.00E+00  0.00E+00  0.00E+00  0.00E+00  0.00E+00  0.00E+00  0.00E+00  0.00E+00  0.00E+00
              0.00E+00  0.00E+00
  14    6.00  0.00E+00  0.00E+00  0.00E+00  0.00E+00  0.00E+00  0.00E+00  0.00E+00  0.00E+00  0.00E+00  0.00E+00  0.00E+00
              0.00E+00  0.00E+00
  15    5.00  0.00E+00  0.00E+00  0.00E+00  0.00E+00  0.00E+00  0.00E+00  0.00E+00  0.00E+00  0.00E+00  0.00E+00  0.00E+00
              0.00E+00  0.00E+00
  16    4.00  0.00E+00  0.00E+00  0.00E+00  0.00E+00  0.00E+00  0.00E+00  0.00E+00  0.00E+00  0.00E+00  0.00E+00  0.00E+00
              0.00E+00  0.00E+00
  17    3.00  0.00E+00  0.00E+00  0.00E+00  0.00E+00  0.00E+00  0.00E+00  0.00E+00  0.00E+00  0.00E+00  0.00E+00  0.00E+00
              0.00E+00  0.00E+00
  18    2.00  0.00E+00  0.00E+00  0.00E+00  0.00E+00  0.00E+00  0.00E+00  0.00E+00  0.00E+00  0.00E+00  0.00E+00  0.00E+00
              0.00E+00  0.00E+00
  19    1.00  0.00E+00  0.00E+00  0.00E+00  0.00E+00  0.00E+00  0.00E+00  0.00E+00  0.00E+00  0.00E+00  0.00E+00  0.00E+00
              0.00E+00  0.00E+00
  20    0.00  0.00E+00  0.00E+00  0.00E+00  0.00E+00  0.00E+00  0.00E+00  0.00E+00  0.00E+00  0.00E+00  0.00E+00  0.00E+00
              0.00E+00  0.00E+00


0SUMMARY OF THE GEOMETRY CALCULATION

          H1      =     20.000 KM
          H2      =      0.000 KM
          ANGLE   =    180.000 DEG
          RANGE   =     20.000 KM
          BETA    =      0.000 DEG
          PHI     =      0.000 DEG
          HMIN    =      0.000 KM
          BENDING =      0.000 DEG
          LEN     =          0




1EQUIVALENT SEA LEVEL TOTAL ABSORBER AMOUNTS

                 HNO3      O3 UV       CNTMSLF1    CNTMSLF2   CNTMFRN
               (ATM CM)   (ATM CM)     (MOL CM-2)  (MOL CM-2)  (MOL CM-2)  (MOL CM-2)

             0.000E+00   0.000E+00   0.000E+00   0.000E+00   0.000E+00


              N2 CONT    MOL SCAT       AER 1       AER 2       AER 3       AER 4     CIRRUS      MEAN RH
                                                                                                  (PRCNT)

             3.678E+00   7.598E+00   0.000E+00   0.000E+00   0.000E+00   0.000E+00   0.000E+00        0.00


                 H2O        O3          CO2         CO          CH4         N2O          O2
               (                                        ATM CM                            )

             0.000E+00   0.000E+00   7.593E+02   0.000E+00   0.000E+00   0.000E+00   1.587E+05

                 NH3        NO          NO2         SO2
                 (               ATM CM               )

             0.000E+00   0.000E+00   0.000E+00   0.000E+00

             CFC-11      CFC-12      CFC-13      CFC-14      CFC-22      CFC-113     CFC-114
                 (                                      ATM CM                            )

             0.000E+00   0.000E+00   0.000E+00   0.000E+00   0.000E+00   0.000E+00   0.000E+00

             CFC-115     CLONO2       HNO4       CHCL2F       CCL4        N2O5  
                 (                                      ATM CM                            )

             0.000E+00   0.000E+00   0.000E+00   0.000E+00   0.000E+00   0.000E+00
  iv           -5
  iv            0
1                                             RADIANCE(WATTS/CM2-STER-XXX)
0  FREQ   WAVLEN    PATH THERMAL      SURFACE EMISSION    SURFACE REFLECTED     TOTAL RADIANCE   INTEGRAL    TOTAL
  (CM-1) (MICRN)    (CM-1)   (MICRN)    (CM-1)   (MICRN)    (CM-1)   (MICRN)    (CM-1)   (MICRN)    (CM-1)   TRANS

      2. 4999.998  3.81E-10  1.52E-13  8.29E-10  3.31E-13  0.00E+00  0.00E+00  1.21E-09  4.84E-13  1.21E-09  0.59399
      4. 2500.000  3.90E-10  6.24E-13  3.71E-09  5.93E-12  0.00E+00  0.00E+00  4.10E-09  6.55E-12  9.40E-09  0.78958
      6. 1666.666  1.33E-10  4.78E-13  8.79E-09  3.16E-11  0.00E+00  0.00E+00  8.92E-09  3.21E-11  2.72E-08  0.96962
      8. 1250.000  7.63E-11  4.89E-13  1.55E-08  9.91E-11  0.00E+00  0.00E+00  1.56E-08  9.96E-11  5.84E-08  0.99426
     10. 1000.000  3.35E-10  3.35E-12  2.36E-08  2.36E-10  0.00E+00  0.00E+00  2.40E-08  2.40E-10  1.06E-07  0.98726
     12.  833.333  2.23E-09  3.21E-11  3.17E-08  4.56E-10  0.00E+00  0.00E+00  3.39E-08  4.88E-10  1.74E-07  0.93466
     14.  714.286  5.74E-09  1.13E-10  3.96E-08  7.75E-10  0.00E+00  0.00E+00  4.53E-08  8.88E-10  2.65E-07  0.85746
     16.  625.000  5.26E-09  1.35E-10  5.40E-08  1.38E-09  0.00E+00  0.00E+00  5.92E-08  1.52E-09  3.83E-07  0.88845
     18.  555.555  1.52E-09  4.92E-11  7.39E-08  2.40E-09  0.00E+00  0.00E+00  7.54E-08  2.44E-09  5.34E-07  0.97177
     20.  500.000  2.82E-10  1.13E-11  9.26E-08  3.70E-09  0.00E+00  0.00E+00  9.29E-08  3.72E-09  7.20E-07  0.99656
     22.  454.545  2.51E-09  1.21E-10  1.09E-07  5.27E-09  0.00E+00  0.00E+00  1.11E-07  5.39E-09  9.43E-07  0.97720
     24.  416.667  1.31E-08  7.52E-10  1.17E-07  6.74E-09  0.00E+00  0.00E+00  1.30E-07  7.49E-09  1.20E-06  0.89076
     26.  384.615  2.38E-08  1.61E-09  1.26E-07  8.54E-09  0.00E+00  0.00E+00  1.50E-07  1.01E-08  1.50E-06  0.81757
     28.  357.143  1.78E-08  1.40E-09  1.57E-07  1.23E-08  0.00E+00  0.00E+00  1.75E-07  1.37E-08  1.85E-06  0.87533
     30.  333.333  4.63E-09  4.17E-10  1.98E-07  1.78E-08  0.00E+00  0.00E+00  2.03E-07  1.83E-08  2.26E-06  0.96995
     32.  312.500  8.21E-10  8.40E-11  2.30E-07  2.35E-08  0.00E+00  0.00E+00  2.30E-07  2.36E-08  2.72E-06  0.99599
     34.  294.118  1.12E-08  1.29E-09  2.46E-07  2.84E-08  0.00E+00  0.00E+00  2.57E-07  2.97E-08  3.23E-06  0.95173
     36.  277.778  3.57E-08  4.63E-09  2.46E-07  3.19E-08  0.00E+00  0.00E+00  2.82E-07  3.66E-08  3.80E-06  0.85569
     38.  263.158  4.38E-08  6.32E-09  2.68E-07  3.87E-08  0.00E+00  0.00E+00  3.12E-07  4.51E-08  4.42E-06  0.83600
     40.  250.000  1.98E-08  3.17E-09  3.30E-07  5.28E-08  0.00E+00  0.00E+00  3.50E-07  5.59E-08  5.12E-06  0.93116
     42.  238.095  2.24E-09  3.96E-10  3.85E-07  6.79E-08  0.00E+00  0.00E+00  3.87E-07  6.83E-08  5.89E-06  0.99328
     44.  227.273  2.14E-09  4.15E-10  4.21E-07  8.14E-08  0.00E+00  0.00E+00  4.23E-07  8.18E-08  6.74E-06  0.99450
     46.  217.391  2.39E-08  5.05E-09  4.32E-07  9.14E-08  0.00E+00  0.00E+00  4.56E-07  9.65E-08  7.65E-06  0.94142
     48.  208.333  6.58E-08  1.52E-08  4.20E-07  9.68E-08  0.00E+00  0.00E+00  4.86E-07  1.12E-07  8.62E-06  0.84474
     50.  200.000  6.87E-08  1.72E-08  4.56E-07  1.14E-07  0.00E+00  0.00E+00  5.25E-07  1.31E-07  9.67E-06  0.84557
     52.  192.308  2.78E-08  7.51E-09  5.46E-07  1.48E-07  0.00E+00  0.00E+00  5.74E-07  1.55E-07  1.08E-05  0.94092
     54.  185.185  2.36E-09  6.89E-10  6.19E-07  1.80E-07  0.00E+00  0.00E+00  6.21E-07  1.81E-07  1.21E-05  0.99565
     56.  178.571  1.45E-08  4.55E-09  6.48E-07  2.03E-07  0.00E+00  0.00E+00  6.62E-07  2.08E-07  1.34E-05  0.97556
     58.  172.414  6.71E-08  2.26E-08  6.29E-07  2.12E-07  0.00E+00  0.00E+00  6.96E-07  2.34E-07  1.48E-05  0.88955
     60.  166.667  1.18E-07  4.24E-08  6.14E-07  2.21E-07  0.00E+00  0.00E+00  7.32E-07  2.64E-07  1.62E-05  0.81361
     62.  161.290  8.67E-08  3.33E-08  6.99E-07  2.69E-07  0.00E+00  0.00E+00  7.86E-07  3.02E-07  1.78E-05  0.86879
     64.  156.250  2.17E-08  8.90E-09  8.25E-07  3.38E-07  0.00E+00  0.00E+00  8.47E-07  3.47E-07  1.95E-05  0.96844
     66.  151.515  2.59E-09  1.13E-09  8.97E-07  3.91E-07  0.00E+00  0.00E+00  9.00E-07  3.92E-07  2.13E-05  0.99678
     68.  147.059  2.15E-08  9.96E-09  9.25E-07  4.28E-07  0.00E+00  0.00E+00  9.47E-07  4.38E-07  2.32E-05  0.97443
     70.  142.857  9.51E-08  4.66E-08  8.89E-07  4.36E-07  0.00E+00  0.00E+00  9.84E-07  4.82E-07  2.52E-05  0.88925
     72.  138.889  1.49E-07  7.70E-08  8.77E-07  4.55E-07  0.00E+00  0.00E+00  1.03E-06  5.32E-07  2.72E-05  0.83116
     74.  135.135  9.69E-08  5.31E-08  9.93E-07  5.44E-07  0.00E+00  0.00E+00  1.09E-06  5.97E-07  2.94E-05  0.89335
     76.  131.579  2.19E-08  1.26E-08  1.14E-06  6.57E-07  0.00E+00  0.00E+00  1.16E-06  6.70E-07  3.17E-05  0.97665
     78.  128.205  2.92E-09  1.78E-09  1.22E-06  7.40E-07  0.00E+00  0.00E+00  1.22E-06  7.42E-07  3.42E-05  0.99734
     80.  125.000  4.21E-08  2.69E-08  1.23E-06  7.85E-07  0.00E+00  0.00E+00  1.27E-06  8.12E-07  3.67E-05  0.96182
     82.  121.951  1.25E-07  8.39E-08  1.19E-06  7.97E-07  0.00E+00  0.00E+00  1.31E-06  8.81E-07  3.93E-05  0.88922
     84.  119.048  1.37E-07  9.67E-08  1.23E-06  8.68E-07  0.00E+00  0.00E+00  1.37E-06  9.64E-07  4.21E-05  0.88224
     86.  116.279  5.34E-08  3.95E-08  1.39E-06  1.03E-06  0.00E+00  0.00E+00  1.44E-06  1.07E-06  4.49E-05  0.95583
     88.  113.636  4.05E-09  3.13E-09  1.51E-06  1.17E-06  0.00E+00  0.00E+00  1.51E-06  1.17E-06  4.80E-05  0.99699
     90.  111.111  3.69E-09  2.99E-09  1.57E-06  1.27E-06  0.00E+00  0.00E+00  1.57E-06  1.27E-06  5.11E-05  0.99741
     92.  108.696  4.44E-08  3.76E-08  1.58E-06  1.34E-06  0.00E+00  0.00E+00  1.63E-06  1.38E-06  5.44E-05  0.96884
     94.  106.383  1.30E-07  1.15E-07  1.55E-06  1.37E-06  0.00E+00  0.00E+00  1.68E-06  1.48E-06  5.77E-05  0.90985
     96.  104.167  1.32E-07  1.22E-07  1.61E-06  1.48E-06  0.00E+00  0.00E+00  1.74E-06  1.60E-06  6.12E-05  0.91026
     98.  102.041  4.66E-08  4.47E-08  1.77E-06  1.70E-06  0.00E+00  0.00E+00  1.82E-06  1.75E-06  6.48E-05  0.96931
    100.  100.000  2.34E-09  2.34E-09  1.89E-06  1.89E-06  0.00E+00  0.00E+00  1.89E-06  1.89E-06  6.86E-05  0.99862
  iv          105
1                                             RADIANCE(WATTS/CM2-STER-XXX)
0  FREQ   WAVLEN    PATH THERMAL      SURFACE EMISSION    SURFACE REFLECTED     TOTAL RADIANCE   INTEGRAL    TOTAL
  (CM-1) (MICRN)    (CM-1)   (MICRN)    (CM-1)   (MICRN)    (CM-1)   (MICRN)    (CM-1)   (MICRN)    (CM-1)   TRANS

    102.   98.039  1.93E-08  2.01E-08  1.94E-06  2.02E-06  0.00E+00  0.00E+00  1.96E-06  2.04E-06  7.25E-05  0.98881
    104.   96.154  9.51E-08  1.03E-07  1.92E-06  2.07E-06  0.00E+00  0.00E+00  2.01E-06  2.17E-06  7.66E-05  0.94531
    106.   94.340  1.68E-07  1.89E-07  1.90E-06  2.13E-06  0.00E+00  0.00E+00  2.06E-06  2.32E-06  8.07E-05  0.90507
    108.   92.593  1.10E-07  1.29E-07  2.03E-06  2.37E-06  0.00E+00  0.00E+00  2.14E-06  2.50E-06  8.50E-05  0.93912
    110.   90.909  2.39E-08  2.89E-08  2.21E-06  2.67E-06  0.00E+00  0.00E+00  2.23E-06  2.70E-06  8.94E-05  0.98712
    112.   89.286  1.68E-09  2.11E-09  2.30E-06  2.89E-06  0.00E+00  0.00E+00  2.30E-06  2.89E-06  9.40E-05  0.99919
    114.   87.719  1.66E-08  2.16E-08  2.35E-06  3.06E-06  0.00E+00  0.00E+00  2.37E-06  3.08E-06  9.88E-05  0.99210
    116.   86.207  8.60E-08  1.16E-07  2.34E-06  3.15E-06  0.00E+00  0.00E+00  2.43E-06  3.27E-06  1.04E-04  0.95940
    118.   84.746  1.49E-07  2.07E-07  2.34E-06  3.26E-06  0.00E+00  0.00E+00  2.49E-06  3.47E-06  1.09E-04  0.93041
    120.   83.333  9.25E-08  1.33E-07  2.48E-06  3.57E-06  0.00E+00  0.00E+00  2.57E-06  3.70E-06  1.14E-04  0.95756
    122.   81.967  1.91E-08  2.85E-08  2.64E-06  3.93E-06  0.00E+00  0.00E+00  2.66E-06  3.96E-06  1.19E-04  0.99140
    124.   80.645  1.13E-09  1.74E-09  2.73E-06  4.20E-06  0.00E+00  0.00E+00  2.74E-06  4.21E-06  1.25E-04  0.99954
    126.   79.365  2.34E-08  3.71E-08  2.78E-06  4.42E-06  0.00E+00  0.00E+00  2.81E-06  4.45E-06  1.30E-04  0.99054
    128.   78.125  8.85E-08  1.45E-07  2.78E-06  4.56E-06  0.00E+00  0.00E+00  2.87E-06  4.70E-06  1.36E-04  0.96450
    130.   76.923  9.49E-08  1.60E-07  2.85E-06  4.81E-06  0.00E+00  0.00E+00  2.94E-06  4.97E-06  1.42E-04  0.96250
    132.   75.758  2.98E-08  5.19E-08  3.00E-06  5.23E-06  0.00E+00  0.00E+00  3.03E-06  5.28E-06  1.48E-04  0.98857
    134.   74.627  1.25E-09  2.24E-09  3.11E-06  5.58E-06  0.00E+00  0.00E+00  3.11E-06  5.59E-06  1.54E-04  0.99956
    136.   73.529  8.46E-10  1.56E-09  3.19E-06  5.89E-06  0.00E+00  0.00E+00  3.19E-06  5.90E-06  1.60E-04  0.99971
    138.   72.464  1.74E-08  3.30E-08  3.24E-06  6.18E-06  0.00E+00  0.00E+00  3.26E-06  6.21E-06  1.67E-04  0.99403
    140.   71.429  7.43E-08  1.46E-07  3.26E-06  6.38E-06  0.00E+00  0.00E+00  3.33E-06  6.53E-06  1.74E-04  0.97460
    142.   70.423  7.54E-08  1.52E-07  3.33E-06  6.72E-06  0.00E+00  0.00E+00  3.41E-06  6.87E-06  1.80E-04  0.97441
    144.   69.444  9.97E-09  2.07E-08  3.49E-06  7.23E-06  0.00E+00  0.00E+00  3.50E-06  7.25E-06  1.87E-04  0.99668
    146.   68.493  4.09E-10  8.72E-10  3.58E-06  7.62E-06  0.00E+00  0.00E+00  3.58E-06  7.62E-06  1.95E-04  0.99987
    148.   67.568  5.16E-09  1.13E-08  3.65E-06  7.99E-06  0.00E+00  0.00E+00  3.65E-06  8.01E-06  2.02E-04  0.99844
    150.   66.667  3.09E-08  6.94E-08  3.70E-06  8.32E-06  0.00E+00  0.00E+00  3.73E-06  8.39E-06  2.09E-04  0.99072
    152.   65.789  6.07E-08  1.40E-07  3.75E-06  8.65E-06  0.00E+00  0.00E+00  3.81E-06  8.79E-06  2.17E-04  0.98189
    154.   64.935  3.41E-08  8.09E-08  3.86E-06  9.14E-06  0.00E+00  0.00E+00  3.89E-06  9.23E-06  2.25E-04  0.98995
    156.   64.103  5.73E-09  1.39E-08  3.97E-06  9.66E-06  0.00E+00  0.00E+00  3.97E-06  9.67E-06  2.33E-04  0.99834
    158.   63.291  2.17E-10  5.41E-10  4.06E-06  1.01E-05  0.00E+00  0.00E+00  4.06E-06  1.01E-05  2.41E-04  0.99994
    160.   62.500  5.41E-09  1.39E-08  4.13E-06  1.06E-05  0.00E+00  0.00E+00  4.14E-06  1.06E-05  2.49E-04  0.99855
    162.   61.728  2.55E-08  6.70E-08  4.19E-06  1.10E-05  0.00E+00  0.00E+00  4.21E-06  1.11E-05  2.58E-04  0.99322
    164.   60.976  2.68E-08  7.21E-08  4.27E-06  1.15E-05  0.00E+00  0.00E+00  4.30E-06  1.16E-05  2.66E-04  0.99295
    166.   60.241  6.59E-09  1.81E-08  4.37E-06  1.21E-05  0.00E+00  0.00E+00  4.38E-06  1.21E-05  2.75E-04  0.99830
    168.   59.524  2.05E-10  5.77E-10  4.46E-06  1.26E-05  0.00E+00  0.00E+00  4.46E-06  1.26E-05  2.84E-04  0.99995
    170.   58.824  1.50E-10  4.32E-10  4.54E-06  1.31E-05  0.00E+00  0.00E+00  4.54E-06  1.31E-05  2.93E-04  0.99996
    172.   58.140  2.93E-09  8.65E-09  4.62E-06  1.37E-05  0.00E+00  0.00E+00  4.63E-06  1.37E-05  3.02E-04  0.99930
    174.   57.471  1.38E-08  4.17E-08  4.69E-06  1.42E-05  0.00E+00  0.00E+00  4.71E-06  1.43E-05  3.12E-04  0.99676
    176.   56.818  1.40E-08  4.33E-08  4.78E-06  1.48E-05  0.00E+00  0.00E+00  4.79E-06  1.48E-05  3.21E-04  0.99673
    178.   56.180  3.14E-09  9.95E-09  4.87E-06  1.54E-05  0.00E+00  0.00E+00  4.87E-06  1.54E-05  3.31E-04  0.99928
    180.   55.556  7.03E-11  2.28E-10  4.96E-06  1.61E-05  0.00E+00  0.00E+00  4.96E-06  1.61E-05  3.41E-04  0.99998
    182.   54.945  6.88E-10  2.28E-09  5.04E-06  1.67E-05  0.00E+00  0.00E+00  5.04E-06  1.67E-05  3.51E-04  0.99985
    184.   54.348  4.47E-09  1.51E-08  5.12E-06  1.73E-05  0.00E+00  0.00E+00  5.12E-06  1.73E-05  3.61E-04  0.99904
    186.   53.763  9.18E-09  3.17E-08  5.20E-06  1.80E-05  0.00E+00  0.00E+00  5.21E-06  1.80E-05  3.72E-04  0.99805
    188.   53.191  4.84E-09  1.71E-08  5.29E-06  1.87E-05  0.00E+00  0.00E+00  5.29E-06  1.87E-05  3.82E-04  0.99898
    190.   52.632  7.38E-10  2.67E-09  5.37E-06  1.94E-05  0.00E+00  0.00E+00  5.37E-06  1.94E-05  3.93E-04  0.99985
    192.   52.083  3.15E-11  1.16E-10  5.46E-06  2.01E-05  0.00E+00  0.00E+00  5.46E-06  2.01E-05  4.04E-04  0.99999
    194.   51.546  5.95E-10  2.24E-09  5.54E-06  2.09E-05  0.00E+00  0.00E+00  5.54E-06  2.09E-05  4.15E-04  0.99988
    196.   51.020  2.90E-09  1.11E-08  5.62E-06  2.16E-05  0.00E+00  0.00E+00  5.62E-06  2.16E-05  4.26E-04  0.99944
    198.   50.505  3.02E-09  1.18E-08  5.70E-06  2.24E-05  0.00E+00  0.00E+00  5.71E-06  2.24E-05  4.38E-04  0.99942
    200.   50.000  7.05E-10  2.82E-09  5.79E-06  2.32E-05  0.00E+00  0.00E+00  5.79E-06  2.32E-05  4.49E-04  0.99987
  iv          205
1                                             RADIANCE(WATTS/CM2-STER-XXX)
0  FREQ   WAVLEN    PATH THERMAL      SURFACE EMISSION    SURFACE REFLECTED     TOTAL RADIANCE   INTEGRAL    TOTAL
  (CM-1) (MICRN)    (CM-1)   (MICRN)    (CM-1)   (MICRN)    (CM-1)   (MICRN)    (CM-1)   (MICRN)    (CM-1)   TRANS

    202.   49.505  2.60E-11  1.06E-10  5.88E-06  2.40E-05  0.00E+00  0.00E+00  5.88E-06  2.40E-05  4.61E-04  1.00000
    204.   49.020  1.28E-10  5.33E-10  5.96E-06  2.48E-05  0.00E+00  0.00E+00  5.96E-06  2.48E-05  4.73E-04  0.99998
    206.   48.544  3.73E-10  1.58E-09  6.04E-06  2.56E-05  0.00E+00  0.00E+00  6.04E-06  2.56E-05  4.85E-04  0.99993
    208.   48.077  1.28E-09  5.53E-09  6.13E-06  2.65E-05  0.00E+00  0.00E+00  6.13E-06  2.65E-05  4.97E-04  0.99977
    210.   47.619  1.40E-09  6.18E-09  6.21E-06  2.74E-05  0.00E+00  0.00E+00  6.21E-06  2.74E-05  5.10E-04  0.99975
    212.   47.170  1.49E-10  6.70E-10  6.29E-06  2.83E-05  0.00E+00  0.00E+00  6.29E-06  2.83E-05  5.22E-04  0.99997
    214.   46.729  1.01E-11  4.63E-11  6.38E-06  2.92E-05  0.00E+00  0.00E+00  6.38E-06  2.92E-05  5.35E-04  1.00000
    216.   46.296  5.55E-11  2.59E-10  6.46E-06  3.01E-05  0.00E+00  0.00E+00  6.46E-06  3.01E-05  5.48E-04  0.99999
    218.   45.872  3.42E-10  1.63E-09  6.54E-06  3.11E-05  0.00E+00  0.00E+00  6.54E-06  3.11E-05  5.61E-04  0.99994
    220.   45.455  7.30E-10  3.54E-09  6.63E-06  3.21E-05  0.00E+00  0.00E+00  6.63E-06  3.21E-05  5.74E-04  0.99988
    222.   45.045  3.02E-10  1.49E-09  6.71E-06  3.31E-05  0.00E+00  0.00E+00  6.71E-06  3.31E-05  5.88E-04  0.99995
    224.   44.643  1.02E-11  5.14E-11  6.79E-06  3.41E-05  0.00E+00  0.00E+00  6.79E-06  3.41E-05  6.01E-04  1.00000
    226.   44.248  9.01E-12  4.60E-11  6.88E-06  3.51E-05  0.00E+00  0.00E+00  6.88E-06  3.51E-05  6.15E-04  1.00000
    228.   43.860  4.27E-11  2.22E-10  6.96E-06  3.62E-05  0.00E+00  0.00E+00  6.96E-06  3.62E-05  6.29E-04  0.99999
    230.   43.478  1.82E-10  9.65E-10  7.04E-06  3.72E-05  0.00E+00  0.00E+00  7.04E-06  3.72E-05  6.43E-04  0.99997
    232.   43.103  1.90E-10  1.02E-09  7.12E-06  3.83E-05  0.00E+00  0.00E+00  7.12E-06  3.83E-05  6.57E-04  0.99997
    234.   42.735  4.85E-11  2.66E-10  7.21E-06  3.95E-05  0.00E+00  0.00E+00  7.21E-06  3.95E-05  6.72E-04  0.99999
    236.   42.373  1.02E-11  5.66E-11  7.29E-06  4.06E-05  0.00E+00  0.00E+00  7.29E-06  4.06E-05  6.86E-04  1.00000
    238.   42.017  1.61E-11  9.13E-11  7.37E-06  4.17E-05  0.00E+00  0.00E+00  7.37E-06  4.17E-05  7.01E-04  1.00000
    240.   41.667  5.16E-11  2.97E-10  7.45E-06  4.29E-05  0.00E+00  0.00E+00  7.45E-06  4.29E-05  7.16E-04  0.99999
    242.   41.322  9.55E-11  5.60E-10  7.53E-06  4.41E-05  0.00E+00  0.00E+00  7.53E-06  4.41E-05  7.31E-04  0.99999
    244.   40.984  5.55E-11  3.31E-10  7.61E-06  4.53E-05  0.00E+00  0.00E+00  7.62E-06  4.53E-05  7.46E-04  0.99999
    246.   40.650  1.86E-11  1.13E-10  7.70E-06  4.66E-05  0.00E+00  0.00E+00  7.70E-06  4.66E-05  7.61E-04  1.00000
    248.   40.323  1.28E-11  7.86E-11  7.78E-06  4.78E-05  0.00E+00  0.00E+00  7.78E-06  4.78E-05  7.77E-04  1.00000
    250.   40.000  1.70E-11  1.06E-10  7.86E-06  4.91E-05  0.00E+00  0.00E+00  7.86E-06  4.91E-05  7.93E-04  1.00000
    252.   39.683  3.32E-11  2.11E-10  7.94E-06  5.04E-05  0.00E+00  0.00E+00  7.94E-06  5.04E-05  8.09E-04  1.00000
    254.   39.370  3.47E-11  2.24E-10  8.02E-06  5.17E-05  0.00E+00  0.00E+00  8.02E-06  5.17E-05  8.25E-04  1.00000
    256.   39.063  1.96E-11  1.28E-10  8.10E-06  5.31E-05  0.00E+00  0.00E+00  8.10E-06  5.31E-05  8.41E-04  1.00000
    258.   38.760  1.60E-11  1.06E-10  8.18E-06  5.44E-05  0.00E+00  0.00E+00  8.18E-06  5.44E-05  8.57E-04  1.00000
    260.   38.462  1.74E-11  1.17E-10  8.26E-06  5.58E-05  0.00E+00  0.00E+00  8.26E-06  5.58E-05  8.74E-04  1.00000
    262.   38.168  2.16E-11  1.48E-10  8.34E-06  5.72E-05  0.00E+00  0.00E+00  8.34E-06  5.72E-05  8.90E-04  1.00000
    264.   37.879  2.68E-11  1.87E-10  8.42E-06  5.87E-05  0.00E+00  0.00E+00  8.42E-06  5.87E-05  9.07E-04  1.00000
    266.   37.594  2.36E-11  1.67E-10  8.49E-06  6.01E-05  0.00E+00  0.00E+00  8.49E-06  6.01E-05  9.24E-04  1.00000
    268.   37.313  2.08E-11  1.49E-10  8.57E-06  6.16E-05  0.00E+00  0.00E+00  8.57E-06  6.16E-05  9.41E-04  1.00000
    270.   37.037  2.12E-11  1.55E-10  8.65E-06  6.31E-05  0.00E+00  0.00E+00  8.65E-06  6.31E-05  9.59E-04  1.00000
    272.   36.765  2.23E-11  1.65E-10  8.73E-06  6.46E-05  0.00E+00  0.00E+00  8.73E-06  6.46E-05  9.76E-04  1.00000
    274.   36.496  2.47E-11  1.85E-10  8.81E-06  6.61E-05  0.00E+00  0.00E+00  8.81E-06  6.61E-05  9.94E-04  1.00000
    276.   36.232  2.58E-11  1.96E-10  8.88E-06  6.77E-05  0.00E+00  0.00E+00  8.88E-06  6.77E-05  1.01E-03  1.00000
    278.   35.971  2.56E-11  1.98E-10  8.96E-06  6.92E-05  0.00E+00  0.00E+00  8.96E-06  6.92E-05  1.03E-03  1.00000
    280.   35.714  2.67E-11  2.09E-10  9.04E-06  7.08E-05  0.00E+00  0.00E+00  9.04E-06  7.08E-05  1.05E-03  1.00000
    282.   35.461  2.78E-11  2.21E-10  9.11E-06  7.25E-05  0.00E+00  0.00E+00  9.11E-06  7.25E-05  1.07E-03  1.00000
    284.   35.211  2.91E-11  2.35E-10  9.19E-06  7.41E-05  0.00E+00  0.00E+00  9.19E-06  7.41E-05  1.08E-03  1.00000
    286.   34.965  3.06E-11  2.50E-10  9.26E-06  7.58E-05  0.00E+00  0.00E+00  9.26E-06  7.58E-05  1.10E-03  1.00000
    288.   34.722  3.19E-11  2.65E-10  9.34E-06  7.75E-05  0.00E+00  0.00E+00  9.34E-06  7.75E-05  1.12E-03  1.00000
    290.   34.483  3.35E-11  2.81E-10  9.41E-06  7.92E-05  0.00E+00  0.00E+00  9.41E-06  7.92E-05  1.14E-03  1.00000
    292.   34.247  3.50E-11  2.98E-10  9.49E-06  8.09E-05  0.00E+00  0.00E+00  9.49E-06  8.09E-05  1.16E-03  1.00000
    294.   34.014  3.65E-11  3.15E-10  9.56E-06  8.26E-05  0.00E+00  0.00E+00  9.56E-06  8.26E-05  1.18E-03  1.00000
    296.   33.784  3.81E-11  3.34E-10  9.64E-06  8.44E-05  0.00E+00  0.00E+00  9.64E-06  8.44E-05  1.20E-03  1.00000
    298.   33.557  3.99E-11  3.54E-10  9.71E-06  8.62E-05  0.00E+00  0.00E+00  9.71E-06  8.62E-05  1.22E-03  1.00000
    300.   33.333  4.17E-11  3.76E-10  9.78E-06  8.80E-05  0.00E+00  0.00E+00  9.78E-06  8.80E-05  1.24E-03  0.99999
  iv          305
1                                             RADIANCE(WATTS/CM2-STER-XXX)
0  FREQ   WAVLEN    PATH THERMAL      SURFACE EMISSION    SURFACE REFLECTED     TOTAL RADIANCE   INTEGRAL    TOTAL
  (CM-1) (MICRN)    (CM-1)   (MICRN)    (CM-1)   (MICRN)    (CM-1)   (MICRN)    (CM-1)   (MICRN)    (CM-1)   TRANS

    302.   33.113  4.38E-11  4.00E-10  9.85E-06  8.99E-05  0.00E+00  0.00E+00  9.85E-06  8.99E-05  1.26E-03  0.99999
    304.   32.895  4.58E-11  4.24E-10  9.93E-06  9.17E-05  0.00E+00  0.00E+00  9.93E-06  9.17E-05  1.28E-03  0.99999
    306.   32.680  4.80E-11  4.49E-10  1.00E-05  9.36E-05  0.00E+00  0.00E+00  1.00E-05  9.36E-05  1.30E-03  0.99999
    308.   32.468  5.00E-11  4.74E-10  1.01E-05  9.55E-05  0.00E+00  0.00E+00  1.01E-05  9.55E-05  1.32E-03  0.99999
    310.   32.258  5.22E-11  5.02E-10  1.01E-05  9.74E-05  0.00E+00  0.00E+00  1.01E-05  9.74E-05  1.34E-03  0.99999
    312.   32.051  5.46E-11  5.31E-10  1.02E-05  9.94E-05  0.00E+00  0.00E+00  1.02E-05  9.94E-05  1.36E-03  0.99999
    314.   31.847  5.72E-11  5.64E-10  1.03E-05  1.01E-04  0.00E+00  0.00E+00  1.03E-05  1.01E-04  1.38E-03  0.99999
    316.   31.646  5.99E-11  5.98E-10  1.03E-05  1.03E-04  0.00E+00  0.00E+00  1.03E-05  1.03E-04  1.40E-03  0.99999
    318.   31.447  6.24E-11  6.31E-10  1.04E-05  1.05E-04  0.00E+00  0.00E+00  1.04E-05  1.05E-04  1.42E-03  0.99999
    320.   31.250  6.50E-11  6.66E-10  1.05E-05  1.07E-04  0.00E+00  0.00E+00  1.05E-05  1.07E-04  1.44E-03  0.99999
    322.   31.056  6.81E-11  7.06E-10  1.06E-05  1.09E-04  0.00E+00  0.00E+00  1.06E-05  1.09E-04  1.46E-03  0.99999
    324.   30.864  7.14E-11  7.49E-10  1.06E-05  1.12E-04  0.00E+00  0.00E+00  1.06E-05  1.12E-04  1.48E-03  0.99999
    326.   30.675  7.45E-11  7.92E-10  1.07E-05  1.14E-04  0.00E+00  0.00E+00  1.07E-05  1.14E-04  1.50E-03  0.99999
    328.   30.488  7.77E-11  8.36E-10  1.08E-05  1.16E-04  0.00E+00  0.00E+00  1.08E-05  1.16E-04  1.53E-03  0.99999
    330.   30.303  8.11E-11  8.83E-10  1.08E-05  1.18E-04  0.00E+00  0.00E+00  1.08E-05  1.18E-04  1.55E-03  0.99999
    332.   30.120  8.50E-11  9.37E-10  1.09E-05  1.20E-04  0.00E+00  0.00E+00  1.09E-05  1.20E-04  1.57E-03  0.99999
    334.   29.940  8.89E-11  9.92E-10  1.10E-05  1.22E-04  0.00E+00  0.00E+00  1.10E-05  1.22E-04  1.59E-03  0.99999
    336.   29.762  9.27E-11  1.05E-09  1.10E-05  1.24E-04  0.00E+00  0.00E+00  1.10E-05  1.24E-04  1.61E-03  0.99999
    338.   29.586  9.69E-11  1.11E-09  1.11E-05  1.27E-04  0.00E+00  0.00E+00  1.11E-05  1.27E-04  1.63E-03  0.99999
    340.   29.412  1.01E-10  1.17E-09  1.11E-05  1.29E-04  0.00E+00  0.00E+00  1.11E-05  1.29E-04  1.66E-03  0.99999
    342.   29.240  1.06E-10  1.24E-09  1.12E-05  1.31E-04  0.00E+00  0.00E+00  1.12E-05  1.31E-04  1.68E-03  0.99999
    344.   29.070  1.11E-10  1.31E-09  1.13E-05  1.33E-04  0.00E+00  0.00E+00  1.13E-05  1.33E-04  1.70E-03  0.99999
    346.   28.902  1.15E-10  1.38E-09  1.13E-05  1.36E-04  0.00E+00  0.00E+00  1.13E-05  1.36E-04  1.72E-03  0.99999
    348.   28.736  1.21E-10  1.46E-09  1.14E-05  1.38E-04  0.00E+00  0.00E+00  1.14E-05  1.38E-04  1.75E-03  0.99999
    350.   28.571  1.26E-10  1.54E-09  1.15E-05  1.40E-04  0.00E+00  0.00E+00  1.15E-05  1.40E-04  1.77E-03  0.99999
    352.   28.409  1.32E-10  1.63E-09  1.15E-05  1.43E-04  0.00E+00  0.00E+00  1.15E-05  1.43E-04  1.79E-03  0.99999
    354.   28.249  1.38E-10  1.72E-09  1.16E-05  1.45E-04  0.00E+00  0.00E+00  1.16E-05  1.45E-04  1.82E-03  0.99999
    356.   28.090  1.44E-10  1.82E-09  1.16E-05  1.48E-04  0.00E+00  0.00E+00  1.16E-05  1.48E-04  1.84E-03  0.99999
    358.   27.933  1.50E-10  1.92E-09  1.17E-05  1.50E-04  0.00E+00  0.00E+00  1.17E-05  1.50E-04  1.86E-03  0.99998
    360.   27.778  1.57E-10  2.03E-09  1.18E-05  1.52E-04  0.00E+00  0.00E+00  1.18E-05  1.52E-04  1.89E-03  0.99998
    362.   27.624  1.64E-10  2.15E-09  1.18E-05  1.55E-04  0.00E+00  0.00E+00  1.18E-05  1.55E-04  1.91E-03  0.99998
    364.   27.473  1.72E-10  2.27E-09  1.19E-05  1.57E-04  0.00E+00  0.00E+00  1.19E-05  1.57E-04  1.93E-03  0.99998
    366.   27.322  1.79E-10  2.40E-09  1.19E-05  1.60E-04  0.00E+00  0.00E+00  1.19E-05  1.60E-04  1.96E-03  0.99998
    368.   27.174  1.87E-10  2.54E-09  1.20E-05  1.62E-04  0.00E+00  0.00E+00  1.20E-05  1.62E-04  1.98E-03  0.99998
    370.   27.027  1.96E-10  2.68E-09  1.20E-05  1.65E-04  0.00E+00  0.00E+00  1.20E-05  1.65E-04  2.01E-03  0.99998
    372.   26.882  2.04E-10  2.83E-09  1.21E-05  1.67E-04  0.00E+00  0.00E+00  1.21E-05  1.67E-04  2.03E-03  0.99998
    374.   26.738  2.14E-10  2.99E-09  1.22E-05  1.70E-04  0.00E+00  0.00E+00  1.22E-05  1.70E-04  2.05E-03  0.99998
    376.   26.596  2.23E-10  3.16E-09  1.22E-05  1.73E-04  0.00E+00  0.00E+00  1.22E-05  1.73E-04  2.08E-03  0.99998
    378.   26.455  2.33E-10  3.33E-09  1.23E-05  1.75E-04  0.00E+00  0.00E+00  1.23E-05  1.75E-04  2.10E-03  0.99998
    380.   26.316  2.44E-10  3.52E-09  1.23E-05  1.78E-04  0.00E+00  0.00E+00  1.23E-05  1.78E-04  2.13E-03  0.99998
    382.   26.178  2.55E-10  3.72E-09  1.24E-05  1.81E-04  0.00E+00  0.00E+00  1.24E-05  1.81E-04  2.15E-03  0.99998
    384.   26.042  2.67E-10  3.93E-09  1.24E-05  1.83E-04  0.00E+00  0.00E+00  1.24E-05  1.83E-04  2.18E-03  0.99997
    386.   25.907  2.79E-10  4.15E-09  1.25E-05  1.86E-04  0.00E+00  0.00E+00  1.25E-05  1.86E-04  2.20E-03  0.99997
    388.   25.773  2.91E-10  4.38E-09  1.25E-05  1.89E-04  0.00E+00  0.00E+00  1.25E-05  1.89E-04  2.23E-03  0.99997
    390.   25.641  3.04E-10  4.63E-09  1.26E-05  1.91E-04  0.00E+00  0.00E+00  1.26E-05  1.91E-04  2.25E-03  0.99997
    392.   25.510  3.18E-10  4.89E-09  1.26E-05  1.94E-04  0.00E+00  0.00E+00  1.26E-05  1.94E-04  2.28E-03  0.99997
    394.   25.381  3.33E-10  5.17E-09  1.27E-05  1.97E-04  0.00E+00  0.00E+00  1.27E-05  1.97E-04  2.30E-03  0.99997
    396.   25.253  3.48E-10  5.46E-09  1.27E-05  2.00E-04  0.00E+00  0.00E+00  1.27E-05  2.00E-04  2.33E-03  0.99997
    398.   25.126  3.64E-10  5.77E-09  1.28E-05  2.02E-04  0.00E+00  0.00E+00  1.28E-05  2.02E-04  2.35E-03  0.99997
    400.   25.000  3.80E-10  6.08E-09  1.28E-05  2.05E-04  0.00E+00  0.00E+00  1.28E-05  2.05E-04  2.38E-03  0.99996
  iv          405
1                                             RADIANCE(WATTS/CM2-STER-XXX)
0  FREQ   WAVLEN    PATH THERMAL      SURFACE EMISSION    SURFACE REFLECTED     TOTAL RADIANCE   INTEGRAL    TOTAL
  (CM-1) (MICRN)    (CM-1)   (MICRN)    (CM-1)   (MICRN)    (CM-1)   (MICRN)    (CM-1)   (MICRN)    (CM-1)   TRANS

    402.   24.876  3.98E-10  6.43E-09  1.29E-05  2.08E-04  0.00E+00  0.00E+00  1.29E-05  2.08E-04  2.41E-03  0.99996
    404.   24.752  4.17E-10  6.81E-09  1.29E-05  2.11E-04  0.00E+00  0.00E+00  1.29E-05  2.11E-04  2.43E-03  0.99996
    406.   24.631  4.37E-10  7.20E-09  1.30E-05  2.14E-04  0.00E+00  0.00E+00  1.30E-05  2.14E-04  2.46E-03  0.99996
    408.   24.510  4.57E-10  7.60E-09  1.30E-05  2.17E-04  0.00E+00  0.00E+00  1.30E-05  2.17E-04  2.48E-03  0.99996
    410.   24.390  4.77E-10  8.02E-09  1.31E-05  2.20E-04  0.00E+00  0.00E+00  1.31E-05  2.20E-04  2.51E-03  0.99996
    412.   24.272  5.00E-10  8.49E-09  1.31E-05  2.22E-04  0.00E+00  0.00E+00  1.31E-05  2.22E-04  2.54E-03  0.99995
    414.   24.155  5.24E-10  8.98E-09  1.32E-05  2.25E-04  0.00E+00  0.00E+00  1.32E-05  2.25E-04  2.56E-03  0.99995
    416.   24.038  5.49E-10  9.50E-09  1.32E-05  2.28E-04  0.00E+00  0.00E+00  1.32E-05  2.28E-04  2.59E-03  0.99995
    418.   23.923  5.74E-10  1.00E-08  1.32E-05  2.31E-04  0.00E+00  0.00E+00  1.32E-05  2.31E-04  2.62E-03  0.99995
    420.   23.810  6.00E-10  1.06E-08  1.33E-05  2.34E-04  0.00E+00  0.00E+00  1.33E-05  2.34E-04  2.64E-03  0.99994
    422.   23.697  6.29E-10  1.12E-08  1.33E-05  2.37E-04  0.00E+00  0.00E+00  1.33E-05  2.37E-04  2.67E-03  0.99994
    424.   23.585  6.61E-10  1.19E-08  1.34E-05  2.40E-04  0.00E+00  0.00E+00  1.34E-05  2.40E-04  2.70E-03  0.99994
    426.   23.474  6.92E-10  1.26E-08  1.34E-05  2.43E-04  0.00E+00  0.00E+00  1.34E-05  2.43E-04  2.72E-03  0.99994
    428.   23.364  7.24E-10  1.33E-08  1.34E-05  2.46E-04  0.00E+00  0.00E+00  1.34E-05  2.46E-04  2.75E-03  0.99993
    430.   23.256  7.58E-10  1.40E-08  1.35E-05  2.49E-04  0.00E+00  0.00E+00  1.35E-05  2.49E-04  2.78E-03  0.99993
    432.   23.148  7.96E-10  1.48E-08  1.35E-05  2.52E-04  0.00E+00  0.00E+00  1.35E-05  2.52E-04  2.80E-03  0.99993
    434.   23.041  8.36E-10  1.57E-08  1.36E-05  2.56E-04  0.00E+00  0.00E+00  1.36E-05  2.56E-04  2.83E-03  0.99992
    436.   22.936  8.77E-10  1.67E-08  1.36E-05  2.59E-04  0.00E+00  0.00E+00  1.36E-05  2.59E-04  2.86E-03  0.99992
    438.   22.831  9.19E-10  1.76E-08  1.36E-05  2.62E-04  0.00E+00  0.00E+00  1.36E-05  2.62E-04  2.88E-03  0.99992
    440.   22.727  1.01E-09  1.95E-08  1.37E-05  2.65E-04  0.00E+00  0.00E+00  1.37E-05  2.65E-04  2.91E-03  0.99991
    442.   22.624  1.27E-09  2.49E-08  1.37E-05  2.68E-04  0.00E+00  0.00E+00  1.37E-05  2.68E-04  2.94E-03  0.99989
    444.   22.523  1.48E-09  2.93E-08  1.38E-05  2.71E-04  0.00E+00  0.00E+00  1.38E-05  2.71E-04  2.97E-03  0.99987
    446.   22.422  1.67E-09  3.33E-08  1.38E-05  2.74E-04  0.00E+00  0.00E+00  1.38E-05  2.74E-04  2.99E-03  0.99986
    448.   22.321  1.89E-09  3.80E-08  1.38E-05  2.77E-04  0.00E+00  0.00E+00  1.38E-05  2.77E-04  3.02E-03  0.99984
    450.   22.222  2.13E-09  4.32E-08  1.39E-05  2.81E-04  0.00E+00  0.00E+00  1.39E-05  2.81E-04  3.05E-03  0.99982
    452.   22.124  2.39E-09  4.88E-08  1.39E-05  2.84E-04  0.00E+00  0.00E+00  1.39E-05  2.84E-04  3.08E-03  0.99980
    454.   22.026  2.64E-09  5.44E-08  1.39E-05  2.87E-04  0.00E+00  0.00E+00  1.39E-05  2.87E-04  3.11E-03  0.99978
    456.   21.930  2.86E-09  5.95E-08  1.40E-05  2.90E-04  0.00E+00  0.00E+00  1.40E-05  2.90E-04  3.13E-03  0.99976
    458.   21.834  3.04E-09  6.38E-08  1.40E-05  2.93E-04  0.00E+00  0.00E+00  1.40E-05  2.93E-04  3.16E-03  0.99974
    460.   21.739  3.15E-09  6.67E-08  1.40E-05  2.97E-04  0.00E+00  0.00E+00  1.40E-05  2.97E-04  3.19E-03  0.99973
    462.   21.645  2.98E-09  6.35E-08  1.41E-05  3.00E-04  0.00E+00  0.00E+00  1.41E-05  3.00E-04  3.22E-03  0.99975
    464.   21.552  2.91E-09  6.27E-08  1.41E-05  3.03E-04  0.00E+00  0.00E+00  1.41E-05  3.03E-04  3.25E-03  0.99975
    466.   21.459  3.05E-09  6.62E-08  1.41E-05  3.06E-04  0.00E+00  0.00E+00  1.41E-05  3.07E-04  3.27E-03  0.99974
    468.   21.368  2.98E-09  6.54E-08  1.41E-05  3.10E-04  0.00E+00  0.00E+00  1.41E-05  3.10E-04  3.30E-03  0.99975
    470.   21.277  1.43E-08  3.16E-07  1.42E-05  3.13E-04  0.00E+00  0.00E+00  1.42E-05  3.13E-04  3.33E-03  0.99884
    472.   21.186  1.59E-08  3.54E-07  1.42E-05  3.16E-04  0.00E+00  0.00E+00  1.42E-05  3.16E-04  3.36E-03  0.99871
    474.   21.097  3.93E-09  8.84E-08  1.42E-05  3.20E-04  0.00E+00  0.00E+00  1.42E-05  3.20E-04  3.39E-03  0.99967
    476.   21.008  3.89E-09  8.81E-08  1.43E-05  3.23E-04  0.00E+00  0.00E+00  1.43E-05  3.23E-04  3.42E-03  0.99967
    478.   20.921  5.22E-09  1.19E-07  1.43E-05  3.26E-04  0.00E+00  0.00E+00  1.43E-05  3.26E-04  3.44E-03  0.99957
    480.   20.833  7.27E-09  1.67E-07  1.43E-05  3.30E-04  0.00E+00  0.00E+00  1.43E-05  3.30E-04  3.47E-03  0.99941
    482.   20.747  7.17E-09  1.67E-07  1.43E-05  3.33E-04  0.00E+00  0.00E+00  1.43E-05  3.33E-04  3.50E-03  0.99941
    484.   20.661  7.73E-09  1.81E-07  1.44E-05  3.36E-04  0.00E+00  0.00E+00  1.44E-05  3.36E-04  3.53E-03  0.99937
    486.   20.576  8.58E-09  2.03E-07  1.44E-05  3.40E-04  0.00E+00  0.00E+00  1.44E-05  3.40E-04  3.56E-03  0.99930
    488.   20.492  9.43E-09  2.25E-07  1.44E-05  3.43E-04  0.00E+00  0.00E+00  1.44E-05  3.43E-04  3.59E-03  0.99923
    490.   20.408  1.10E-08  2.64E-07  1.44E-05  3.46E-04  0.00E+00  0.00E+00  1.44E-05  3.47E-04  3.62E-03  0.99911
    492.   20.325  1.21E-08  2.92E-07  1.44E-05  3.50E-04  0.00E+00  0.00E+00  1.45E-05  3.50E-04  3.65E-03  0.99902
    494.   20.243  1.23E-08  3.01E-07  1.45E-05  3.53E-04  0.00E+00  0.00E+00  1.45E-05  3.53E-04  3.67E-03  0.99900
    496.   20.161  1.31E-08  3.23E-07  1.45E-05  3.56E-04  0.00E+00  0.00E+00  1.45E-05  3.57E-04  3.70E-03  0.99894
    498.   20.080  1.38E-08  3.42E-07  1.45E-05  3.60E-04  0.00E+00  0.00E+00  1.45E-05  3.60E-04  3.73E-03  0.99889
    500.   20.000  1.46E-08  3.65E-07  1.45E-05  3.63E-04  0.00E+00  0.00E+00  1.45E-05  3.64E-04  3.76E-03  0.99882
  iv          505
1                                             RADIANCE(WATTS/CM2-STER-XXX)
0  FREQ   WAVLEN    PATH THERMAL      SURFACE EMISSION    SURFACE REFLECTED     TOTAL RADIANCE   INTEGRAL    TOTAL
  (CM-1) (MICRN)    (CM-1)   (MICRN)    (CM-1)   (MICRN)    (CM-1)   (MICRN)    (CM-1)   (MICRN)    (CM-1)   TRANS

    502.   19.920  1.53E-08  3.84E-07  1.46E-05  3.67E-04  0.00E+00  0.00E+00  1.46E-05  3.67E-04  3.79E-03  0.99877
    504.   19.841  1.88E-08  4.77E-07  1.46E-05  3.70E-04  0.00E+00  0.00E+00  1.46E-05  3.71E-04  3.82E-03  0.99849
    506.   19.763  3.98E-08  1.02E-06  1.46E-05  3.73E-04  0.00E+00  0.00E+00  1.46E-05  3.74E-04  3.85E-03  0.99684
    508.   19.685  1.12E-07  2.89E-06  1.45E-05  3.74E-04  0.00E+00  0.00E+00  1.46E-05  3.77E-04  3.88E-03  0.99118
    510.   19.608  1.06E-07  2.75E-06  1.45E-05  3.78E-04  0.00E+00  0.00E+00  1.46E-05  3.81E-04  3.91E-03  0.99167
    512.   19.531  7.67E-08  2.01E-06  1.46E-05  3.82E-04  0.00E+00  0.00E+00  1.47E-05  3.84E-04  3.94E-03  0.99393
    514.   19.455  9.49E-08  2.51E-06  1.46E-05  3.85E-04  0.00E+00  0.00E+00  1.47E-05  3.88E-04  3.97E-03  0.99246
    516.   19.380  1.26E-07  3.36E-06  1.46E-05  3.87E-04  0.00E+00  0.00E+00  1.47E-05  3.91E-04  4.00E-03  0.98995
    518.   19.305  1.63E-07  4.36E-06  1.45E-05  3.90E-04  0.00E+00  0.00E+00  1.47E-05  3.94E-04  4.03E-03  0.98703
    520.   19.231  2.04E-07  5.51E-06  1.45E-05  3.92E-04  0.00E+00  0.00E+00  1.47E-05  3.97E-04  4.05E-03  0.98368
    522.   19.157  2.52E-07  6.86E-06  1.45E-05  3.94E-04  0.00E+00  0.00E+00  1.47E-05  4.01E-04  4.08E-03  0.97976
    524.   19.084  3.01E-07  8.26E-06  1.44E-05  3.96E-04  0.00E+00  0.00E+00  1.47E-05  4.04E-04  4.11E-03  0.97575
    526.   19.011  3.62E-07  1.00E-05  1.43E-05  3.97E-04  0.00E+00  0.00E+00  1.47E-05  4.07E-04  4.14E-03  0.97071
    528.   18.939  4.06E-07  1.13E-05  1.43E-05  3.99E-04  0.00E+00  0.00E+00  1.47E-05  4.10E-04  4.17E-03  0.96707
    530.   18.868  4.19E-07  1.18E-05  1.43E-05  4.02E-04  0.00E+00  0.00E+00  1.47E-05  4.13E-04  4.20E-03  0.96591
    532.   18.797  4.20E-07  1.19E-05  1.43E-05  4.05E-04  0.00E+00  0.00E+00  1.47E-05  4.17E-04  4.23E-03  0.96574
    534.   18.727  3.67E-07  1.05E-05  1.44E-05  4.10E-04  0.00E+00  0.00E+00  1.48E-05  4.21E-04  4.26E-03  0.97009
    536.   18.657  3.60E-07  1.03E-05  1.44E-05  4.14E-04  0.00E+00  0.00E+00  1.48E-05  4.24E-04  4.29E-03  0.97065
    538.   18.587  3.49E-07  1.01E-05  1.44E-05  4.18E-04  0.00E+00  0.00E+00  1.48E-05  4.28E-04  4.32E-03  0.97147
    540.   18.519  2.64E-07  7.70E-06  1.45E-05  4.24E-04  0.00E+00  0.00E+00  1.48E-05  4.32E-04  4.35E-03  0.97851
    542.   18.450  5.94E-07  1.74E-05  1.42E-05  4.16E-04  0.00E+00  0.00E+00  1.47E-05  4.33E-04  4.38E-03  0.95115
    544.   18.382  3.00E-06  8.87E-05  1.11E-05  3.30E-04  0.00E+00  0.00E+00  1.41E-05  4.18E-04  4.41E-03  0.74798
    546.   18.315  3.11E-06  9.27E-05  1.10E-05  3.29E-04  0.00E+00  0.00E+00  1.42E-05  4.22E-04  4.44E-03  0.74153
    548.   18.248  9.73E-07  2.92E-05  1.37E-05  4.13E-04  0.00E+00  0.00E+00  1.47E-05  4.42E-04  4.47E-03  0.92238
    550.   18.182  5.93E-07  1.79E-05  1.42E-05  4.30E-04  0.00E+00  0.00E+00  1.48E-05  4.48E-04  4.49E-03  0.95235
    552.   18.116  6.07E-07  1.85E-05  1.42E-05  4.33E-04  0.00E+00  0.00E+00  1.48E-05  4.51E-04  4.52E-03  0.95129
    554.   18.051  7.23E-07  2.22E-05  1.41E-05  4.32E-04  0.00E+00  0.00E+00  1.48E-05  4.54E-04  4.55E-03  0.94204
    556.   17.986  9.28E-07  2.87E-05  1.38E-05  4.27E-04  0.00E+00  0.00E+00  1.48E-05  4.56E-04  4.58E-03  0.92565
    558.   17.921  1.09E-06  3.38E-05  1.36E-05  4.25E-04  0.00E+00  0.00E+00  1.47E-05  4.59E-04  4.61E-03  0.91329
    560.   17.857  1.18E-06  3.69E-05  1.36E-05  4.25E-04  0.00E+00  0.00E+00  1.47E-05  4.62E-04  4.64E-03  0.90640
    562.   17.794  1.37E-06  4.33E-05  1.33E-05  4.21E-04  0.00E+00  0.00E+00  1.47E-05  4.64E-04  4.67E-03  0.89110
    564.   17.730  1.88E-06  5.98E-05  1.27E-05  4.05E-04  0.00E+00  0.00E+00  1.46E-05  4.64E-04  4.70E-03  0.85018
    566.   17.668  2.38E-06  7.63E-05  1.21E-05  3.88E-04  0.00E+00  0.00E+00  1.45E-05  4.65E-04  4.73E-03  0.80969
    568.   17.606  2.78E-06  8.98E-05  1.16E-05  3.75E-04  0.00E+00  0.00E+00  1.44E-05  4.65E-04  4.76E-03  0.77625
    570.   17.544  3.42E-06  1.11E-04  1.08E-05  3.52E-04  0.00E+00  0.00E+00  1.42E-05  4.63E-04  4.79E-03  0.72270
    572.   17.483  4.15E-06  1.36E-04  9.87E-06  3.23E-04  0.00E+00  0.00E+00  1.40E-05  4.59E-04  4.82E-03  0.65894
    574.   17.422  5.16E-06  1.70E-04  8.53E-06  2.81E-04  0.00E+00  0.00E+00  1.37E-05  4.51E-04  4.84E-03  0.56906
    576.   17.361  5.83E-06  1.93E-04  7.53E-06  2.50E-04  0.00E+00  0.00E+00  1.34E-05  4.43E-04  4.87E-03  0.50261
    578.   17.301  6.47E-06  2.16E-04  6.53E-06  2.18E-04  0.00E+00  0.00E+00  1.30E-05  4.34E-04  4.90E-03  0.43553
    580.   17.241  7.51E-06  2.53E-04  5.00E-06  1.68E-04  0.00E+00  0.00E+00  1.25E-05  4.21E-04  4.92E-03  0.33338
    582.   17.182  8.21E-06  2.78E-04  3.77E-06  1.28E-04  0.00E+00  0.00E+00  1.20E-05  4.06E-04  4.94E-03  0.25178
    584.   17.123  8.14E-06  2.77E-04  3.54E-06  1.21E-04  0.00E+00  0.00E+00  1.17E-05  3.98E-04  4.97E-03  0.23602
    586.   17.065  8.34E-06  2.87E-04  2.75E-06  9.45E-05  0.00E+00  0.00E+00  1.11E-05  3.81E-04  4.99E-03  0.18358
    588.   17.007  8.48E-06  2.93E-04  2.16E-06  7.48E-05  0.00E+00  0.00E+00  1.06E-05  3.68E-04  5.01E-03  0.14434
    590.   16.949  8.35E-06  2.91E-04  2.01E-06  7.00E-05  0.00E+00  0.00E+00  1.04E-05  3.61E-04  5.03E-03  0.13413
    592.   16.892  8.58E-06  3.01E-04  1.57E-06  5.50E-05  0.00E+00  0.00E+00  1.01E-05  3.56E-04  5.05E-03  0.10467
    594.   16.835  8.44E-06  2.98E-04  5.06E-07  1.79E-05  0.00E+00  0.00E+00  8.95E-06  3.16E-04  5.07E-03  0.03378
    596.   16.779  7.55E-06  2.68E-04  1.17E-07  4.17E-06  0.00E+00  0.00E+00  7.67E-06  2.72E-04  5.09E-03  0.00783
    598.   16.722  7.71E-06  2.76E-04  1.81E-07  6.47E-06  0.00E+00  0.00E+00  7.89E-06  2.82E-04  5.10E-03  0.01207
    600.   16.667  8.45E-06  3.04E-04  4.06E-07  1.46E-05  0.00E+00  0.00E+00  8.85E-06  3.19E-04  5.12E-03  0.02710
  iv          605
1                                             RADIANCE(WATTS/CM2-STER-XXX)
0  FREQ   WAVLEN    PATH THERMAL      SURFACE EMISSION    SURFACE REFLECTED     TOTAL RADIANCE   INTEGRAL    TOTAL
  (CM-1) (MICRN)    (CM-1)   (MICRN)    (CM-1)   (MICRN)    (CM-1)   (MICRN)    (CM-1)   (MICRN)    (CM-1)   TRANS

    602.   16.611  7.95E-06  2.88E-04  3.46E-07  1.26E-05  0.00E+00  0.00E+00  8.29E-06  3.01E-04  5.14E-03  0.02311
    604.   16.556  7.65E-06  2.79E-04  1.42E-07  5.18E-06  0.00E+00  0.00E+00  7.79E-06  2.84E-04  5.15E-03  0.00948
    606.   16.502  7.29E-06  2.68E-04  8.29E-08  3.05E-06  0.00E+00  0.00E+00  7.37E-06  2.71E-04  5.17E-03  0.00554
    608.   16.447  7.12E-06  2.63E-04  6.24E-08  2.31E-06  0.00E+00  0.00E+00  7.19E-06  2.66E-04  5.18E-03  0.00417
    610.   16.393  7.46E-06  2.77E-04  8.78E-08  3.27E-06  0.00E+00  0.00E+00  7.54E-06  2.81E-04  5.20E-03  0.00587
    612.   16.340  7.53E-06  2.82E-04  1.14E-07  4.26E-06  0.00E+00  0.00E+00  7.65E-06  2.86E-04  5.21E-03  0.00761
    614.   16.287  6.82E-06  2.57E-04  4.56E-08  1.72E-06  0.00E+00  0.00E+00  6.87E-06  2.59E-04  5.22E-03  0.00305
    616.   16.234  5.26E-06  1.99E-04  5.11E-09  1.94E-07  0.00E+00  0.00E+00  5.26E-06  2.00E-04  5.23E-03  0.00034
    618.   16.181  4.71E-06  1.80E-04  2.20E-09  8.39E-08  0.00E+00  0.00E+00  4.72E-06  1.80E-04  5.24E-03  0.00015
    620.   16.129  6.22E-06  2.39E-04  8.85E-09  3.40E-07  0.00E+00  0.00E+00  6.23E-06  2.39E-04  5.26E-03  0.00059
    622.   16.077  6.27E-06  2.42E-04  1.01E-08  3.92E-07  0.00E+00  0.00E+00  6.28E-06  2.43E-04  5.27E-03  0.00068
    624.   16.026  5.73E-06  2.23E-04  5.23E-09  2.04E-07  0.00E+00  0.00E+00  5.74E-06  2.23E-04  5.28E-03  0.00035
    626.   15.974  5.28E-06  2.07E-04  5.71E-10  2.24E-08  0.00E+00  0.00E+00  5.28E-06  2.07E-04  5.29E-03  0.00004
    628.   15.924  4.80E-06  1.89E-04  1.20E-10  4.71E-09  0.00E+00  0.00E+00  4.80E-06  1.89E-04  5.30E-03  0.00001
    630.   15.873  4.51E-06  1.79E-04  7.70E-12  3.05E-10  0.00E+00  0.00E+00  4.51E-06  1.79E-04  5.31E-03  0.00000
    632.   15.823  4.29E-06  1.71E-04  3.53E-13  1.41E-11  0.00E+00  0.00E+00  4.29E-06  1.71E-04  5.32E-03  0.00000
    634.   15.773  4.04E-06  1.63E-04  4.77E-14  1.92E-12  0.00E+00  0.00E+00  4.04E-06  1.63E-04  5.33E-03  0.00000
    636.   15.723  3.79E-06  1.53E-04  8.03E-16  3.25E-14  0.00E+00  0.00E+00  3.79E-06  1.53E-04  5.33E-03  0.00000
    638.   15.674  3.63E-06  1.48E-04  1.12E-18  4.55E-17  0.00E+00  0.00E+00  3.63E-06  1.48E-04  5.34E-03  0.00000
    640.   15.625  3.50E-06  1.43E-04  1.59E-19  6.49E-18  0.00E+00  0.00E+00  3.50E-06  1.43E-04  5.35E-03  0.00000
    642.   15.576  3.40E-06  1.40E-04  1.42E-21  5.83E-20  0.00E+00  0.00E+00  3.40E-06  1.40E-04  5.36E-03  0.00000
    644.   15.528  3.33E-06  1.38E-04  2.71E-25  1.12E-23  0.00E+00  0.00E+00  3.33E-06  1.38E-04  5.36E-03  0.00000
    646.   15.480  3.30E-06  1.38E-04  6.18E-27  2.58E-25  0.00E+00  0.00E+00  3.30E-06  1.38E-04  5.37E-03  0.00000
    648.   15.432  3.33E-06  1.40E-04  1.10E-29  4.60E-28  0.00E+00  0.00E+00  3.33E-06  1.40E-04  5.38E-03  0.00000
    650.   15.385  3.33E-06  1.41E-04  8.10E-36  3.42E-34  0.00E+00  0.00E+00  3.33E-06  1.41E-04  5.38E-03  0.00000
    652.   15.337  3.28E-06  1.39E-04  2.44E-35  1.04E-33  0.00E+00  0.00E+00  3.28E-06  1.39E-04  5.39E-03  0.00000
    654.   15.291  3.25E-06  1.39E-04  1.08E-29  4.62E-28  0.00E+00  0.00E+00  3.25E-06  1.39E-04  5.39E-03  0.00000
    656.   15.244  3.23E-06  1.39E-04  1.08E-29  4.64E-28  0.00E+00  0.00E+00  3.23E-06  1.39E-04  5.40E-03  0.00000
    658.   15.198  3.24E-06  1.40E-04  1.41E-35  6.10E-34  0.00E+00  0.00E+00  3.24E-06  1.40E-04  5.41E-03  0.00000
    660.   15.152  3.22E-06  1.40E-04  2.19E-35  9.54E-34  0.00E+00  0.00E+00  3.22E-06  1.40E-04  5.41E-03  0.00000
    662.   15.106  3.25E-06  1.42E-04  1.09E-35  4.77E-34  0.00E+00  0.00E+00  3.25E-06  1.42E-04  5.42E-03  0.00000
    664.   15.060  3.24E-06  1.43E-04  0.00E+00  0.00E+00  0.00E+00  0.00E+00  3.24E-06  1.43E-04  5.43E-03  0.00000
    666.   15.015  3.27E-06  1.45E-04  0.00E+00  0.00E+00  0.00E+00  0.00E+00  3.27E-06  1.45E-04  5.43E-03  0.00000
    668.   14.970  3.34E-06  1.49E-04  0.00E+00  0.00E+00  0.00E+00  0.00E+00  3.34E-06  1.49E-04  5.44E-03  0.00000
    670.   14.925  3.26E-06  1.46E-04  0.00E+00  0.00E+00  0.00E+00  0.00E+00  3.26E-06  1.46E-04  5.45E-03  0.00000
    672.   14.881  3.15E-06  1.42E-04  8.80E-43  3.97E-41  0.00E+00  0.00E+00  3.15E-06  1.42E-04  5.45E-03  0.00000
    674.   14.837  3.11E-06  1.42E-04  1.43E-35  6.49E-34  0.00E+00  0.00E+00  3.11E-06  1.42E-04  5.46E-03  0.00000
    676.   14.793  3.09E-06  1.41E-04  4.28E-35  1.96E-33  0.00E+00  0.00E+00  3.09E-06  1.41E-04  5.47E-03  0.00000
    678.   14.749  3.09E-06  1.42E-04  1.43E-35  6.56E-34  0.00E+00  0.00E+00  3.09E-06  1.42E-04  5.47E-03  0.00000
    680.   14.706  3.07E-06  1.42E-04  5.56E-43  2.57E-41  0.00E+00  0.00E+00  3.07E-06  1.42E-04  5.48E-03  0.00000
    682.   14.663  3.04E-06  1.41E-04  4.70E-33  2.19E-31  0.00E+00  0.00E+00  3.04E-06  1.41E-04  5.48E-03  0.00000
    684.   14.620  2.99E-06  1.40E-04  1.48E-32  6.92E-31  0.00E+00  0.00E+00  2.99E-06  1.40E-04  5.49E-03  0.00000
    686.   14.577  2.96E-06  1.39E-04  6.77E-33  3.19E-31  0.00E+00  0.00E+00  2.96E-06  1.39E-04  5.50E-03  0.00000
    688.   14.535  2.94E-06  1.39E-04  2.31E-33  1.09E-31  0.00E+00  0.00E+00  2.94E-06  1.39E-04  5.50E-03  0.00000
    690.   14.493  2.92E-06  1.39E-04  2.90E-23  1.38E-21  0.00E+00  0.00E+00  2.92E-06  1.39E-04  5.51E-03  0.00000
    692.   14.451  2.96E-06  1.42E-04  7.16E-22  3.43E-20  0.00E+00  0.00E+00  2.96E-06  1.42E-04  5.51E-03  0.00000
    694.   14.409  3.00E-06  1.45E-04  1.98E-21  9.56E-20  0.00E+00  0.00E+00  3.00E-06  1.45E-04  5.52E-03  0.00000
    696.   14.368  3.02E-06  1.46E-04  1.30E-19  6.32E-18  0.00E+00  0.00E+00  3.02E-06  1.46E-04  5.53E-03  0.00000
    698.   14.327  3.22E-06  1.57E-04  1.23E-15  5.97E-14  0.00E+00  0.00E+00  3.22E-06  1.57E-04  5.53E-03  0.00000
    700.   14.286  3.45E-06  1.69E-04  3.71E-15  1.82E-13  0.00E+00  0.00E+00  3.45E-06  1.69E-04  5.54E-03  0.00000
  iv          705
1                                             RADIANCE(WATTS/CM2-STER-XXX)
0  FREQ   WAVLEN    PATH THERMAL      SURFACE EMISSION    SURFACE REFLECTED     TOTAL RADIANCE   INTEGRAL    TOTAL
  (CM-1) (MICRN)    (CM-1)   (MICRN)    (CM-1)   (MICRN)    (CM-1)   (MICRN)    (CM-1)   (MICRN)    (CM-1)   TRANS

    702.   14.245  3.48E-06  1.71E-04  1.35E-15  6.63E-14  0.00E+00  0.00E+00  3.48E-06  1.71E-04  5.55E-03  0.00000
    704.   14.205  3.86E-06  1.91E-04  2.33E-13  1.16E-11  0.00E+00  0.00E+00  3.86E-06  1.91E-04  5.55E-03  0.00000
    706.   14.164  4.29E-06  2.14E-04  4.09E-12  2.04E-10  0.00E+00  0.00E+00  4.29E-06  2.14E-04  5.56E-03  0.00000
    708.   14.124  4.51E-06  2.26E-04  3.77E-11  1.89E-09  0.00E+00  0.00E+00  4.51E-06  2.26E-04  5.57E-03  0.00000
    710.   14.085  4.69E-06  2.37E-04  3.65E-10  1.84E-08  0.00E+00  0.00E+00  4.70E-06  2.37E-04  5.58E-03  0.00003
    712.   14.045  5.07E-06  2.57E-04  1.63E-09  8.28E-08  0.00E+00  0.00E+00  5.07E-06  2.57E-04  5.59E-03  0.00011
    714.   14.006  5.45E-06  2.78E-04  3.72E-09  1.90E-07  0.00E+00  0.00E+00  5.45E-06  2.78E-04  5.60E-03  0.00026
    716.   13.966  5.53E-06  2.84E-04  4.34E-09  2.22E-07  0.00E+00  0.00E+00  5.54E-06  2.84E-04  5.61E-03  0.00030
    718.   13.928  4.63E-06  2.38E-04  1.70E-09  8.78E-08  0.00E+00  0.00E+00  4.63E-06  2.39E-04  5.62E-03  0.00012
    720.   13.889  3.50E-06  1.81E-04  1.42E-11  7.35E-10  0.00E+00  0.00E+00  3.50E-06  1.81E-04  5.63E-03  0.00000
    722.   13.850  5.15E-06  2.69E-04  2.42E-08  1.26E-06  0.00E+00  0.00E+00  5.18E-06  2.70E-04  5.64E-03  0.00171
    724.   13.812  6.66E-06  3.49E-04  1.39E-07  7.30E-06  0.00E+00  0.00E+00  6.80E-06  3.56E-04  5.65E-03  0.00986
    726.   13.774  7.02E-06  3.70E-04  2.92E-07  1.54E-05  0.00E+00  0.00E+00  7.31E-06  3.85E-04  5.67E-03  0.02066
    728.   13.736  6.81E-06  3.61E-04  1.88E-07  9.97E-06  0.00E+00  0.00E+00  7.00E-06  3.71E-04  5.68E-03  0.01333
    730.   13.699  6.37E-06  3.39E-04  1.10E-07  5.88E-06  0.00E+00  0.00E+00  6.48E-06  3.45E-04  5.69E-03  0.00784
    732.   13.661  6.27E-06  3.36E-04  8.33E-08  4.46E-06  0.00E+00  0.00E+00  6.35E-06  3.40E-04  5.71E-03  0.00593
    734.   13.624  6.33E-06  3.41E-04  8.22E-08  4.43E-06  0.00E+00  0.00E+00  6.41E-06  3.45E-04  5.72E-03  0.00586
    736.   13.587  6.39E-06  3.46E-04  8.51E-08  4.61E-06  0.00E+00  0.00E+00  6.48E-06  3.51E-04  5.73E-03  0.00608
    738.   13.550  6.33E-06  3.45E-04  6.15E-08  3.35E-06  0.00E+00  0.00E+00  6.39E-06  3.48E-04  5.75E-03  0.00440
    740.   13.514  5.86E-06  3.21E-04  2.74E-08  1.50E-06  0.00E+00  0.00E+00  5.89E-06  3.23E-04  5.76E-03  0.00197
    742.   13.477  6.03E-06  3.32E-04  2.17E-07  1.19E-05  0.00E+00  0.00E+00  6.24E-06  3.44E-04  5.77E-03  0.01560
    744.   13.441  7.15E-06  3.96E-04  6.78E-07  3.75E-05  0.00E+00  0.00E+00  7.82E-06  4.33E-04  5.79E-03  0.04877
    746.   13.405  7.43E-06  4.13E-04  1.04E-06  5.76E-05  0.00E+00  0.00E+00  8.46E-06  4.71E-04  5.80E-03  0.07463
    748.   13.369  7.39E-06  4.14E-04  1.42E-06  7.92E-05  0.00E+00  0.00E+00  8.81E-06  4.93E-04  5.82E-03  0.10224
    750.   13.333  7.32E-06  4.12E-04  1.81E-06  1.02E-04  0.00E+00  0.00E+00  9.13E-06  5.13E-04  5.84E-03  0.13103
    752.   13.298  7.23E-06  4.09E-04  2.28E-06  1.29E-04  0.00E+00  0.00E+00  9.51E-06  5.38E-04  5.86E-03  0.16544
    754.   13.263  7.17E-06  4.08E-04  2.66E-06  1.51E-04  0.00E+00  0.00E+00  9.83E-06  5.59E-04  5.88E-03  0.19320
    756.   13.228  7.17E-06  4.10E-04  2.84E-06  1.62E-04  0.00E+00  0.00E+00  1.00E-05  5.72E-04  5.90E-03  0.20630
    758.   13.193  6.59E-06  3.79E-04  3.99E-06  2.29E-04  0.00E+00  0.00E+00  1.06E-05  6.08E-04  5.92E-03  0.29093
    760.   13.158  5.50E-06  3.18E-04  5.91E-06  3.41E-04  0.00E+00  0.00E+00  1.14E-05  6.59E-04  5.94E-03  0.43172
    762.   13.123  4.87E-06  2.83E-04  6.94E-06  4.03E-04  0.00E+00  0.00E+00  1.18E-05  6.86E-04  5.96E-03  0.50801
    764.   13.089  4.32E-06  2.52E-04  7.81E-06  4.56E-04  0.00E+00  0.00E+00  1.21E-05  7.08E-04  5.99E-03  0.57242
    766.   13.055  3.78E-06  2.22E-04  8.62E-06  5.06E-04  0.00E+00  0.00E+00  1.24E-05  7.27E-04  6.01E-03  0.63314
    768.   13.021  3.38E-06  2.00E-04  9.19E-06  5.42E-04  0.00E+00  0.00E+00  1.26E-05  7.42E-04  6.04E-03  0.67692
    770.   12.987  3.08E-06  1.82E-04  9.61E-06  5.70E-04  0.00E+00  0.00E+00  1.27E-05  7.52E-04  6.06E-03  0.70899
    772.   12.953  2.49E-06  1.49E-04  1.03E-05  6.17E-04  0.00E+00  0.00E+00  1.28E-05  7.66E-04  6.09E-03  0.76514
    774.   12.920  2.05E-06  1.23E-04  1.09E-05  6.52E-04  0.00E+00  0.00E+00  1.29E-05  7.75E-04  6.12E-03  0.80648
    776.   12.887  1.71E-06  1.03E-04  1.13E-05  6.80E-04  0.00E+00  0.00E+00  1.30E-05  7.83E-04  6.14E-03  0.83770
    778.   12.853  1.40E-06  8.46E-05  1.17E-05  7.06E-04  0.00E+00  0.00E+00  1.31E-05  7.90E-04  6.17E-03  0.86728
    780.   12.821  1.20E-06  7.29E-05  1.19E-05  7.23E-04  0.00E+00  0.00E+00  1.31E-05  7.96E-04  6.19E-03  0.88560
    782.   12.788  1.13E-06  6.93E-05  1.19E-05  7.29E-04  0.00E+00  0.00E+00  1.31E-05  7.98E-04  6.22E-03  0.89041
    784.   12.755  9.30E-07  5.72E-05  1.21E-05  7.47E-04  0.00E+00  0.00E+00  1.31E-05  8.04E-04  6.25E-03  0.90944
    786.   12.723  7.24E-07  4.48E-05  1.24E-05  7.65E-04  0.00E+00  0.00E+00  1.31E-05  8.10E-04  6.27E-03  0.92935
    788.   12.690  5.31E-07  3.30E-05  1.26E-05  7.83E-04  0.00E+00  0.00E+00  1.31E-05  8.16E-04  6.30E-03  0.94847
    790.   12.658  2.00E-06  1.25E-04  1.04E-05  6.48E-04  0.00E+00  0.00E+00  1.24E-05  7.73E-04  6.32E-03  0.78233
    792.   12.626  4.19E-06  2.63E-04  7.01E-06  4.40E-04  0.00E+00  0.00E+00  1.12E-05  7.03E-04  6.35E-03  0.52986
    794.   12.594  2.12E-06  1.34E-04  1.02E-05  6.44E-04  0.00E+00  0.00E+00  1.23E-05  7.78E-04  6.37E-03  0.77333
    796.   12.563  7.71E-07  4.88E-05  1.22E-05  7.71E-04  0.00E+00  0.00E+00  1.29E-05  8.19E-04  6.40E-03  0.92292
    798.   12.531  8.05E-07  5.12E-05  1.21E-05  7.69E-04  0.00E+00  0.00E+00  1.29E-05  8.20E-04  6.42E-03  0.91800
    800.   12.500  7.64E-07  4.89E-05  1.21E-05  7.74E-04  0.00E+00  0.00E+00  1.29E-05  8.23E-04  6.45E-03  0.92203
  iv          805
1                                             RADIANCE(WATTS/CM2-STER-XXX)
0  FREQ   WAVLEN    PATH THERMAL      SURFACE EMISSION    SURFACE REFLECTED     TOTAL RADIANCE   INTEGRAL    TOTAL
  (CM-1) (MICRN)    (CM-1)   (MICRN)    (CM-1)   (MICRN)    (CM-1)   (MICRN)    (CM-1)   (MICRN)    (CM-1)   TRANS

    802.   12.469  9.30E-07  5.98E-05  1.18E-05  7.61E-04  0.00E+00  0.00E+00  1.28E-05  8.21E-04  6.47E-03  0.90457
    804.   12.438  9.41E-07  6.08E-05  1.18E-05  7.63E-04  0.00E+00  0.00E+00  1.27E-05  8.23E-04  6.50E-03  0.90345
    806.   12.407  9.09E-07  5.90E-05  1.18E-05  7.67E-04  0.00E+00  0.00E+00  1.27E-05  8.26E-04  6.52E-03  0.90673
    808.   12.376  8.48E-07  5.54E-05  1.19E-05  7.75E-04  0.00E+00  0.00E+00  1.27E-05  8.30E-04  6.55E-03  0.91309
    810.   12.346  7.73E-07  5.07E-05  1.19E-05  7.84E-04  0.00E+00  0.00E+00  1.27E-05  8.34E-04  6.58E-03  0.92113
    812.   12.315  6.73E-07  4.44E-05  1.20E-05  7.94E-04  0.00E+00  0.00E+00  1.27E-05  8.39E-04  6.60E-03  0.93149
    814.   12.285  5.16E-07  3.42E-05  1.22E-05  8.10E-04  0.00E+00  0.00E+00  1.27E-05  8.45E-04  6.63E-03  0.94789
    816.   12.255  5.14E-07  3.42E-05  1.22E-05  8.13E-04  0.00E+00  0.00E+00  1.27E-05  8.47E-04  6.65E-03  0.94827
    818.   12.225  4.14E-07  2.77E-05  1.23E-05  8.23E-04  0.00E+00  0.00E+00  1.27E-05  8.51E-04  6.68E-03  0.95846
    820.   12.195  3.21E-07  2.16E-05  1.24E-05  8.34E-04  0.00E+00  0.00E+00  1.27E-05  8.55E-04  6.70E-03  0.96797
    822.   12.165  2.40E-07  1.62E-05  1.25E-05  8.43E-04  0.00E+00  0.00E+00  1.27E-05  8.59E-04  6.73E-03  0.97617
    824.   12.136  1.60E-07  1.09E-05  1.25E-05  8.51E-04  0.00E+00  0.00E+00  1.27E-05  8.62E-04  6.75E-03  0.98408
    826.   12.107  1.55E-07  1.06E-05  1.25E-05  8.54E-04  0.00E+00  0.00E+00  1.27E-05  8.65E-04  6.78E-03  0.98469
    828.   12.077  2.83E-07  1.94E-05  1.23E-05  8.45E-04  0.00E+00  0.00E+00  1.26E-05  8.64E-04  6.80E-03  0.97211
    830.   12.048  1.77E-07  1.22E-05  1.24E-05  8.56E-04  0.00E+00  0.00E+00  1.26E-05  8.68E-04  6.83E-03  0.98264
    832.   12.019  6.39E-08  4.43E-06  1.25E-05  8.68E-04  0.00E+00  0.00E+00  1.26E-05  8.72E-04  6.85E-03  0.99367
    834.   11.990  4.61E-08  3.21E-06  1.25E-05  8.71E-04  0.00E+00  0.00E+00  1.26E-05  8.74E-04  6.88E-03  0.99538
    836.   11.962  3.94E-08  2.76E-06  1.25E-05  8.74E-04  0.00E+00  0.00E+00  1.25E-05  8.76E-04  6.90E-03  0.99602
    838.   11.933  3.81E-08  2.68E-06  1.25E-05  8.76E-04  0.00E+00  0.00E+00  1.25E-05  8.78E-04  6.93E-03  0.99614
    840.   11.905  3.23E-08  2.28E-06  1.24E-05  8.78E-04  0.00E+00  0.00E+00  1.25E-05  8.80E-04  6.95E-03  0.99671
    842.   11.876  3.06E-08  2.17E-06  1.24E-05  8.80E-04  0.00E+00  0.00E+00  1.24E-05  8.82E-04  6.98E-03  0.99687
    844.   11.848  3.06E-08  2.18E-06  1.24E-05  8.82E-04  0.00E+00  0.00E+00  1.24E-05  8.84E-04  7.00E-03  0.99686
    846.   11.820  2.84E-08  2.03E-06  1.23E-05  8.84E-04  0.00E+00  0.00E+00  1.24E-05  8.86E-04  7.03E-03  0.99708
    848.   11.792  2.48E-08  1.78E-06  1.23E-05  8.86E-04  0.00E+00  0.00E+00  1.23E-05  8.88E-04  7.05E-03  0.99744
    850.   11.765  2.25E-08  1.63E-06  1.23E-05  8.88E-04  0.00E+00  0.00E+00  1.23E-05  8.90E-04  7.08E-03  0.99766
    852.   11.737  2.09E-08  1.52E-06  1.23E-05  8.90E-04  0.00E+00  0.00E+00  1.23E-05  8.91E-04  7.10E-03  0.99782
    854.   11.710  1.73E-08  1.26E-06  1.22E-05  8.92E-04  0.00E+00  0.00E+00  1.22E-05  8.93E-04  7.13E-03  0.99818
    856.   11.682  1.95E-08  1.43E-06  1.22E-05  8.93E-04  0.00E+00  0.00E+00  1.22E-05  8.95E-04  7.15E-03  0.99797
    858.   11.655  1.81E-08  1.33E-06  1.22E-05  8.95E-04  0.00E+00  0.00E+00  1.22E-05  8.97E-04  7.18E-03  0.99811
    860.   11.628  1.27E-08  9.37E-07  1.21E-05  8.97E-04  0.00E+00  0.00E+00  1.21E-05  8.98E-04  7.20E-03  0.99866
    862.   11.601  2.88E-08  2.14E-06  1.21E-05  8.98E-04  0.00E+00  0.00E+00  1.21E-05  9.00E-04  7.22E-03  0.99701
    864.   11.574  6.13E-08  4.58E-06  1.20E-05  8.96E-04  0.00E+00  0.00E+00  1.21E-05  9.01E-04  7.25E-03  0.99362
    866.   11.547  3.10E-08  2.33E-06  1.20E-05  9.01E-04  0.00E+00  0.00E+00  1.20E-05  9.03E-04  7.27E-03  0.99675
    868.   11.521  9.80E-09  7.39E-07  1.20E-05  9.04E-04  0.00E+00  0.00E+00  1.20E-05  9.05E-04  7.30E-03  0.99895
    870.   11.494  1.05E-08  7.91E-07  1.20E-05  9.06E-04  0.00E+00  0.00E+00  1.20E-05  9.07E-04  7.32E-03  0.99888
    872.   11.468  1.16E-08  8.84E-07  1.19E-05  9.07E-04  0.00E+00  0.00E+00  1.19E-05  9.08E-04  7.34E-03  0.99875
    874.   11.442  1.21E-08  9.26E-07  1.19E-05  9.09E-04  0.00E+00  0.00E+00  1.19E-05  9.10E-04  7.37E-03  0.99869
    876.   11.416  1.31E-08  1.01E-06  1.19E-05  9.10E-04  0.00E+00  0.00E+00  1.19E-05  9.11E-04  7.39E-03  0.99858
    878.   11.390  1.43E-08  1.10E-06  1.18E-05  9.12E-04  0.00E+00  0.00E+00  1.18E-05  9.13E-04  7.42E-03  0.99846
    880.   11.364  1.53E-08  1.19E-06  1.18E-05  9.13E-04  0.00E+00  0.00E+00  1.18E-05  9.14E-04  7.44E-03  0.99835
    882.   11.338  1.63E-08  1.27E-06  1.18E-05  9.14E-04  0.00E+00  0.00E+00  1.18E-05  9.16E-04  7.46E-03  0.99824
    884.   11.312  1.79E-08  1.40E-06  1.17E-05  9.16E-04  0.00E+00  0.00E+00  1.17E-05  9.17E-04  7.49E-03  0.99806
    886.   11.287  1.95E-08  1.53E-06  1.17E-05  9.17E-04  0.00E+00  0.00E+00  1.17E-05  9.18E-04  7.51E-03  0.99788
    888.   11.261  2.13E-08  1.68E-06  1.16E-05  9.18E-04  0.00E+00  0.00E+00  1.17E-05  9.20E-04  7.53E-03  0.99768
    890.   11.236  2.56E-08  2.02E-06  1.16E-05  9.19E-04  0.00E+00  0.00E+00  1.16E-05  9.21E-04  7.56E-03  0.99721
    892.   11.211  3.06E-08  2.44E-06  1.16E-05  9.20E-04  0.00E+00  0.00E+00  1.16E-05  9.22E-04  7.58E-03  0.99664
    894.   11.186  3.49E-08  2.79E-06  1.15E-05  9.21E-04  0.00E+00  0.00E+00  1.16E-05  9.24E-04  7.60E-03  0.99618
    896.   11.161  3.97E-08  3.19E-06  1.15E-05  9.22E-04  0.00E+00  0.00E+00  1.15E-05  9.25E-04  7.63E-03  0.99565
    898.   11.136  4.58E-08  3.69E-06  1.14E-05  9.22E-04  0.00E+00  0.00E+00  1.15E-05  9.26E-04  7.65E-03  0.99495
    900.   11.111  5.41E-08  4.38E-06  1.14E-05  9.23E-04  0.00E+00  0.00E+00  1.14E-05  9.27E-04  7.67E-03  0.99399
  iv          905
1                                             RADIANCE(WATTS/CM2-STER-XXX)
0  FREQ   WAVLEN    PATH THERMAL      SURFACE EMISSION    SURFACE REFLECTED     TOTAL RADIANCE   INTEGRAL    TOTAL
  (CM-1) (MICRN)    (CM-1)   (MICRN)    (CM-1)   (MICRN)    (CM-1)   (MICRN)    (CM-1)   (MICRN)    (CM-1)   TRANS

    902.   11.086  5.87E-08  4.78E-06  1.14E-05  9.24E-04  0.00E+00  0.00E+00  1.14E-05  9.28E-04  7.69E-03  0.99350
    904.   11.062  6.73E-08  5.50E-06  1.13E-05  9.24E-04  0.00E+00  0.00E+00  1.14E-05  9.29E-04  7.72E-03  0.99252
    906.   11.038  7.76E-08  6.37E-06  1.13E-05  9.24E-04  0.00E+00  0.00E+00  1.13E-05  9.30E-04  7.74E-03  0.99138
    908.   11.013  8.91E-08  7.34E-06  1.12E-05  9.24E-04  0.00E+00  0.00E+00  1.13E-05  9.31E-04  7.76E-03  0.99009
    910.   10.989  9.88E-08  8.18E-06  1.12E-05  9.24E-04  0.00E+00  0.00E+00  1.13E-05  9.32E-04  7.79E-03  0.98897
    912.   10.965  1.02E-07  8.48E-06  1.11E-05  9.25E-04  0.00E+00  0.00E+00  1.12E-05  9.33E-04  7.81E-03  0.98862
    914.   10.941  9.91E-08  8.28E-06  1.11E-05  9.26E-04  0.00E+00  0.00E+00  1.12E-05  9.35E-04  7.83E-03  0.98891
    916.   10.917  1.13E-07  9.45E-06  1.10E-05  9.26E-04  0.00E+00  0.00E+00  1.11E-05  9.35E-04  7.85E-03  0.98727
    918.   10.893  1.34E-07  1.13E-05  1.10E-05  9.25E-04  0.00E+00  0.00E+00  1.11E-05  9.36E-04  7.87E-03  0.98479
    920.   10.870  1.42E-07  1.21E-05  1.09E-05  9.25E-04  0.00E+00  0.00E+00  1.11E-05  9.37E-04  7.90E-03  0.98368
    922.   10.846  1.65E-07  1.40E-05  1.09E-05  9.23E-04  0.00E+00  0.00E+00  1.10E-05  9.37E-04  7.92E-03  0.98099
    924.   10.823  1.74E-07  1.49E-05  1.08E-05  9.23E-04  0.00E+00  0.00E+00  1.10E-05  9.38E-04  7.94E-03  0.97973
    926.   10.799  1.99E-07  1.71E-05  1.07E-05  9.21E-04  0.00E+00  0.00E+00  1.09E-05  9.38E-04  7.96E-03  0.97658
    928.   10.776  2.40E-07  2.06E-05  1.07E-05  9.18E-04  0.00E+00  0.00E+00  1.09E-05  9.38E-04  7.98E-03  0.97168
    930.   10.753  3.00E-07  2.60E-05  1.05E-05  9.11E-04  0.00E+00  0.00E+00  1.08E-05  9.37E-04  8.01E-03  0.96424
    932.   10.730  3.69E-07  3.21E-05  1.04E-05  9.04E-04  0.00E+00  0.00E+00  1.08E-05  9.36E-04  8.03E-03  0.95571
    934.   10.707  4.30E-07  3.75E-05  1.03E-05  8.98E-04  0.00E+00  0.00E+00  1.07E-05  9.35E-04  8.05E-03  0.94785
    936.   10.684  4.91E-07  4.30E-05  1.02E-05  8.91E-04  0.00E+00  0.00E+00  1.07E-05  9.34E-04  8.07E-03  0.93987
    938.   10.661  5.47E-07  4.82E-05  1.01E-05  8.85E-04  0.00E+00  0.00E+00  1.06E-05  9.33E-04  8.09E-03  0.93237
    940.   10.638  6.94E-07  6.13E-05  9.81E-06  8.67E-04  0.00E+00  0.00E+00  1.05E-05  9.28E-04  8.11E-03  0.91261
    942.   10.616  8.43E-07  7.48E-05  9.56E-06  8.49E-04  0.00E+00  0.00E+00  1.04E-05  9.23E-04  8.13E-03  0.89239
    944.   10.593  7.64E-07  6.81E-05  9.63E-06  8.58E-04  0.00E+00  0.00E+00  1.04E-05  9.26E-04  8.15E-03  0.90181
    946.   10.571  7.82E-07  7.00E-05  9.57E-06  8.56E-04  0.00E+00  0.00E+00  1.03E-05  9.26E-04  8.18E-03  0.89868
    948.   10.549  9.04E-07  8.12E-05  9.35E-06  8.40E-04  0.00E+00  0.00E+00  1.03E-05  9.22E-04  8.20E-03  0.88142
    950.   10.526  7.70E-07  6.95E-05  9.50E-06  8.58E-04  0.00E+00  0.00E+00  1.03E-05  9.27E-04  8.22E-03  0.89891
    952.   10.504  6.18E-07  5.60E-05  9.68E-06  8.78E-04  0.00E+00  0.00E+00  1.03E-05  9.34E-04  8.24E-03  0.91900
    954.   10.482  6.22E-07  5.66E-05  9.64E-06  8.77E-04  0.00E+00  0.00E+00  1.03E-05  9.34E-04  8.26E-03  0.91761
    956.   10.460  6.01E-07  5.49E-05  9.63E-06  8.80E-04  0.00E+00  0.00E+00  1.02E-05  9.35E-04  8.28E-03  0.91995
    958.   10.438  4.03E-07  3.70E-05  9.87E-06  9.06E-04  0.00E+00  0.00E+00  1.03E-05  9.43E-04  8.30E-03  0.94654
    960.   10.417  1.86E-07  1.71E-05  1.01E-05  9.34E-04  0.00E+00  0.00E+00  1.03E-05  9.51E-04  8.32E-03  0.97551
    962.   10.395  1.89E-07  1.75E-05  1.01E-05  9.35E-04  0.00E+00  0.00E+00  1.03E-05  9.52E-04  8.34E-03  0.97496
    964.   10.373  4.04E-07  3.75E-05  9.76E-06  9.07E-04  0.00E+00  0.00E+00  1.02E-05  9.44E-04  8.36E-03  0.94535
    966.   10.352  5.89E-07  5.50E-05  9.46E-06  8.82E-04  0.00E+00  0.00E+00  1.00E-05  9.37E-04  8.38E-03  0.91938
    968.   10.331  7.16E-07  6.71E-05  9.24E-06  8.66E-04  0.00E+00  0.00E+00  9.95E-06  9.33E-04  8.40E-03  0.90128
    970.   10.309  8.03E-07  7.56E-05  9.08E-06  8.54E-04  0.00E+00  0.00E+00  9.88E-06  9.30E-04  8.42E-03  0.88891
    972.   10.288  9.34E-07  8.82E-05  8.85E-06  8.36E-04  0.00E+00  0.00E+00  9.79E-06  9.25E-04  8.44E-03  0.86980
    974.   10.267  8.24E-07  7.82E-05  8.98E-06  8.52E-04  0.00E+00  0.00E+00  9.81E-06  9.30E-04  8.46E-03  0.88567
    976.   10.246  9.68E-07  9.22E-05  8.75E-06  8.33E-04  0.00E+00  0.00E+00  9.71E-06  9.25E-04  8.48E-03  0.86532
    978.   10.225  8.07E-07  7.72E-05  8.95E-06  8.56E-04  0.00E+00  0.00E+00  9.76E-06  9.33E-04  8.50E-03  0.88878
    980.   10.204  6.88E-07  6.60E-05  9.09E-06  8.73E-04  0.00E+00  0.00E+00  9.78E-06  9.39E-04  8.52E-03  0.90613
    982.   10.183  6.86E-07  6.61E-05  9.07E-06  8.74E-04  0.00E+00  0.00E+00  9.75E-06  9.40E-04  8.54E-03  0.90670
    984.   10.163  4.86E-07  4.71E-05  9.31E-06  9.02E-04  0.00E+00  0.00E+00  9.80E-06  9.49E-04  8.56E-03  0.93481
    986.   10.142  2.76E-07  2.69E-05  9.56E-06  9.30E-04  0.00E+00  0.00E+00  9.84E-06  9.57E-04  8.58E-03  0.96347
    988.   10.121  2.31E-07  2.25E-05  9.59E-06  9.36E-04  0.00E+00  0.00E+00  9.82E-06  9.59E-04  8.60E-03  0.96959
    990.   10.101  1.67E-07  1.64E-05  9.64E-06  9.45E-04  0.00E+00  0.00E+00  9.81E-06  9.61E-04  8.62E-03  0.97808
    992.   10.081  1.02E-07  1.01E-05  9.69E-06  9.53E-04  0.00E+00  0.00E+00  9.79E-06  9.64E-04  8.63E-03  0.98668
    994.   10.060  4.51E-08  4.46E-06  9.73E-06  9.61E-04  0.00E+00  0.00E+00  9.77E-06  9.66E-04  8.65E-03  0.99414
    996.   10.040  2.21E-08  2.19E-06  9.72E-06  9.64E-04  0.00E+00  0.00E+00  9.74E-06  9.66E-04  8.67E-03  0.99711
    998.   10.020  1.43E-08  1.42E-06  9.69E-06  9.66E-04  0.00E+00  0.00E+00  9.71E-06  9.67E-04  8.69E-03  0.99810
   1000.   10.000  1.18E-08  1.18E-06  9.66E-06  9.66E-04  0.00E+00  0.00E+00  9.67E-06  9.67E-04  8.71E-03  0.99837
  iv         1005
1                                             RADIANCE(WATTS/CM2-STER-XXX)
0  FREQ   WAVLEN    PATH THERMAL      SURFACE EMISSION    SURFACE REFLECTED     TOTAL RADIANCE   INTEGRAL    TOTAL
  (CM-1) (MICRN)    (CM-1)   (MICRN)    (CM-1)   (MICRN)    (CM-1)   (MICRN)    (CM-1)   (MICRN)    (CM-1)   TRANS

   1002.    9.980  1.38E-08  1.38E-06  9.62E-06  9.66E-04  0.00E+00  0.00E+00  9.64E-06  9.68E-04  8.73E-03  0.99806
   1004.    9.960  1.42E-08  1.43E-06  9.59E-06  9.66E-04  0.00E+00  0.00E+00  9.60E-06  9.68E-04  8.75E-03  0.99801
   1006.    9.940  1.50E-08  1.52E-06  9.55E-06  9.67E-04  0.00E+00  0.00E+00  9.57E-06  9.68E-04  8.77E-03  0.99789
   1008.    9.921  1.93E-08  1.97E-06  9.51E-06  9.66E-04  0.00E+00  0.00E+00  9.53E-06  9.68E-04  8.79E-03  0.99732
   1010.    9.901  2.67E-08  2.72E-06  9.46E-06  9.65E-04  0.00E+00  0.00E+00  9.49E-06  9.68E-04  8.81E-03  0.99632
   1012.    9.881  2.70E-08  2.76E-06  9.43E-06  9.66E-04  0.00E+00  0.00E+00  9.46E-06  9.68E-04  8.83E-03  0.99628
   1014.    9.862  2.71E-08  2.78E-06  9.39E-06  9.66E-04  0.00E+00  0.00E+00  9.42E-06  9.69E-04  8.85E-03  0.99628
   1016.    9.843  4.03E-08  4.16E-06  9.34E-06  9.64E-04  0.00E+00  0.00E+00  9.38E-06  9.68E-04  8.86E-03  0.99449
   1018.    9.823  5.33E-08  5.52E-06  9.29E-06  9.63E-04  0.00E+00  0.00E+00  9.34E-06  9.68E-04  8.88E-03  0.99266
   1020.    9.804  7.12E-08  7.41E-06  9.23E-06  9.60E-04  0.00E+00  0.00E+00  9.30E-06  9.68E-04  8.90E-03  0.99005
   1022.    9.785  9.81E-08  1.02E-05  9.16E-06  9.57E-04  0.00E+00  0.00E+00  9.26E-06  9.67E-04  8.92E-03  0.98617
   1024.    9.766  1.29E-07  1.35E-05  9.08E-06  9.52E-04  0.00E+00  0.00E+00  9.21E-06  9.66E-04  8.94E-03  0.98160
   1026.    9.747  1.65E-07  1.74E-05  9.00E-06  9.47E-04  0.00E+00  0.00E+00  9.16E-06  9.65E-04  8.96E-03  0.97617
   1028.    9.728  2.07E-07  2.19E-05  8.90E-06  9.41E-04  0.00E+00  0.00E+00  9.11E-06  9.63E-04  8.98E-03  0.96980
   1030.    9.709  2.57E-07  2.73E-05  8.80E-06  9.34E-04  0.00E+00  0.00E+00  9.06E-06  9.61E-04  8.99E-03  0.96211
   1032.    9.690  3.06E-07  3.26E-05  8.70E-06  9.26E-04  0.00E+00  0.00E+00  9.00E-06  9.59E-04  9.01E-03  0.95441
   1034.    9.671  3.56E-07  3.81E-05  8.59E-06  9.18E-04  0.00E+00  0.00E+00  8.94E-06  9.56E-04  9.03E-03  0.94622
   1036.    9.653  4.17E-07  4.47E-05  8.47E-06  9.09E-04  0.00E+00  0.00E+00  8.88E-06  9.53E-04  9.05E-03  0.93630
   1038.    9.634  4.73E-07  5.10E-05  8.35E-06  8.99E-04  0.00E+00  0.00E+00  8.82E-06  9.50E-04  9.06E-03  0.92674
   1040.    9.615  5.21E-07  5.64E-05  8.24E-06  8.91E-04  0.00E+00  0.00E+00  8.76E-06  9.47E-04  9.08E-03  0.91825
   1042.    9.597  5.70E-07  6.18E-05  8.13E-06  8.83E-04  0.00E+00  0.00E+00  8.70E-06  9.44E-04  9.10E-03  0.90961
   1044.    9.579  6.18E-07  6.73E-05  8.02E-06  8.74E-04  0.00E+00  0.00E+00  8.64E-06  9.41E-04  9.12E-03  0.90093
   1046.    9.560  6.86E-07  7.51E-05  7.89E-06  8.63E-04  0.00E+00  0.00E+00  8.57E-06  9.38E-04  9.13E-03  0.88934
   1048.    9.542  8.33E-07  9.15E-05  7.62E-06  8.37E-04  0.00E+00  0.00E+00  8.45E-06  9.28E-04  9.15E-03  0.86280
   1050.    9.524  9.56E-07  1.05E-04  7.39E-06  8.15E-04  0.00E+00  0.00E+00  8.35E-06  9.20E-04  9.17E-03  0.84001
   1052.    9.506  8.53E-07  9.44E-05  7.51E-06  8.32E-04  0.00E+00  0.00E+00  8.37E-06  9.26E-04  9.18E-03  0.85752
   1054.    9.488  8.37E-07  9.30E-05  7.50E-06  8.33E-04  0.00E+00  0.00E+00  8.34E-06  9.26E-04  9.20E-03  0.85944
   1056.    9.470  8.99E-07  1.00E-04  7.37E-06  8.22E-04  0.00E+00  0.00E+00  8.27E-06  9.22E-04  9.22E-03  0.84781
   1058.    9.452  7.24E-07  8.11E-05  7.60E-06  8.51E-04  0.00E+00  0.00E+00  8.33E-06  9.32E-04  9.23E-03  0.87840
   1060.    9.434  5.31E-07  5.97E-05  7.86E-06  8.83E-04  0.00E+00  0.00E+00  8.39E-06  9.43E-04  9.25E-03  0.91150
   1062.    9.416  3.98E-07  4.48E-05  8.02E-06  9.05E-04  0.00E+00  0.00E+00  8.42E-06  9.50E-04  9.27E-03  0.93408
   1064.    9.398  2.59E-07  2.93E-05  8.19E-06  9.27E-04  0.00E+00  0.00E+00  8.45E-06  9.57E-04  9.29E-03  0.95758
   1066.    9.381  4.14E-07  4.70E-05  7.93E-06  9.01E-04  0.00E+00  0.00E+00  8.34E-06  9.48E-04  9.30E-03  0.93019
   1068.    9.363  7.56E-07  8.62E-05  7.37E-06  8.41E-04  0.00E+00  0.00E+00  8.13E-06  9.27E-04  9.32E-03  0.86851
   1070.    9.346  9.09E-07  1.04E-04  7.10E-06  8.13E-04  0.00E+00  0.00E+00  8.01E-06  9.17E-04  9.33E-03  0.84034
   1072.    9.328  8.95E-07  1.03E-04  7.08E-06  8.14E-04  0.00E+00  0.00E+00  7.98E-06  9.17E-04  9.35E-03  0.84135
   1074.    9.311  9.67E-07  1.12E-04  6.94E-06  8.01E-04  0.00E+00  0.00E+00  7.91E-06  9.13E-04  9.37E-03  0.82832
   1076.    9.294  1.11E-06  1.29E-04  6.69E-06  7.74E-04  0.00E+00  0.00E+00  7.80E-06  9.03E-04  9.38E-03  0.80108
   1078.    9.276  1.01E-06  1.17E-04  6.84E-06  7.94E-04  0.00E+00  0.00E+00  7.84E-06  9.11E-04  9.40E-03  0.82207
   1080.    9.259  1.17E-06  1.36E-04  6.57E-06  7.67E-04  0.00E+00  0.00E+00  7.74E-06  9.03E-04  9.41E-03  0.79360
   1082.    9.242  1.08E-06  1.26E-04  6.69E-06  7.84E-04  0.00E+00  0.00E+00  7.77E-06  9.09E-04  9.43E-03  0.81160
   1084.    9.225  7.90E-07  9.28E-05  7.10E-06  8.35E-04  0.00E+00  0.00E+00  7.89E-06  9.27E-04  9.44E-03  0.86479
   1086.    9.208  7.91E-07  9.33E-05  7.08E-06  8.35E-04  0.00E+00  0.00E+00  7.87E-06  9.28E-04  9.46E-03  0.86525
   1088.    9.191  6.48E-07  7.67E-05  7.25E-06  8.59E-04  0.00E+00  0.00E+00  7.90E-06  9.35E-04  9.48E-03  0.89069
   1090.    9.174  4.68E-07  5.56E-05  7.48E-06  8.89E-04  0.00E+00  0.00E+00  7.95E-06  9.44E-04  9.49E-03  0.92225
   1092.    9.158  3.19E-07  3.80E-05  7.66E-06  9.13E-04  0.00E+00  0.00E+00  7.97E-06  9.51E-04  9.51E-03  0.94765
   1094.    9.141  1.87E-07  2.23E-05  7.80E-06  9.34E-04  0.00E+00  0.00E+00  7.99E-06  9.56E-04  9.52E-03  0.96963
   1096.    9.124  1.10E-07  1.32E-05  7.87E-06  9.45E-04  0.00E+00  0.00E+00  7.98E-06  9.58E-04  9.54E-03  0.98226
   1098.    9.107  6.40E-08  7.72E-06  7.90E-06  9.52E-04  0.00E+00  0.00E+00  7.96E-06  9.60E-04  9.56E-03  0.98971
   1100.    9.091  3.19E-08  3.87E-06  7.90E-06  9.56E-04  0.00E+00  0.00E+00  7.94E-06  9.60E-04  9.57E-03  0.99489
  iv         1105
1                                             RADIANCE(WATTS/CM2-STER-XXX)
0  FREQ   WAVLEN    PATH THERMAL      SURFACE EMISSION    SURFACE REFLECTED     TOTAL RADIANCE   INTEGRAL    TOTAL
  (CM-1) (MICRN)    (CM-1)   (MICRN)    (CM-1)   (MICRN)    (CM-1)   (MICRN)    (CM-1)   (MICRN)    (CM-1)   TRANS

   1102.    9.074  1.51E-08  1.84E-06  7.89E-06  9.58E-04  0.00E+00  0.00E+00  7.91E-06  9.60E-04  9.59E-03  0.99758
   1104.    9.058  6.28E-09  7.66E-07  7.87E-06  9.59E-04  0.00E+00  0.00E+00  7.88E-06  9.60E-04  9.60E-03  0.99899
   1106.    9.042  2.37E-09  2.90E-07  7.84E-06  9.59E-04  0.00E+00  0.00E+00  7.84E-06  9.60E-04  9.62E-03  0.99962
   1108.    9.025  7.27E-10  8.93E-08  7.81E-06  9.59E-04  0.00E+00  0.00E+00  7.81E-06  9.59E-04  9.63E-03  0.99988
   1110.    9.009  2.51E-10  3.10E-08  7.78E-06  9.58E-04  0.00E+00  0.00E+00  7.78E-06  9.58E-04  9.65E-03  0.99996
   1112.    8.993  1.36E-10  1.69E-08  7.75E-06  9.58E-04  0.00E+00  0.00E+00  7.75E-06  9.58E-04  9.66E-03  0.99997
   1114.    8.977  1.21E-10  1.50E-08  7.71E-06  9.57E-04  0.00E+00  0.00E+00  7.71E-06  9.57E-04  9.68E-03  0.99998
   1116.    8.961  1.10E-10  1.37E-08  7.68E-06  9.56E-04  0.00E+00  0.00E+00  7.68E-06  9.57E-04  9.70E-03  0.99998
   1118.    8.945  9.97E-11  1.25E-08  7.65E-06  9.56E-04  0.00E+00  0.00E+00  7.65E-06  9.56E-04  9.71E-03  0.99998
   1120.    8.929  9.13E-11  1.14E-08  7.61E-06  9.55E-04  0.00E+00  0.00E+00  7.61E-06  9.55E-04  9.73E-03  0.99998
   1122.    8.913  8.53E-11  1.07E-08  7.58E-06  9.54E-04  0.00E+00  0.00E+00  7.58E-06  9.54E-04  9.74E-03  0.99998
   1124.    8.897  8.06E-11  1.02E-08  7.55E-06  9.54E-04  0.00E+00  0.00E+00  7.55E-06  9.54E-04  9.76E-03  0.99998
   1126.    8.881  7.59E-11  9.63E-09  7.52E-06  9.53E-04  0.00E+00  0.00E+00  7.52E-06  9.53E-04  9.77E-03  0.99998
   1128.    8.865  7.12E-11  9.06E-09  7.48E-06  9.52E-04  0.00E+00  0.00E+00  7.48E-06  9.52E-04  9.79E-03  0.99999
   1130.    8.850  6.70E-11  8.55E-09  7.45E-06  9.52E-04  0.00E+00  0.00E+00  7.45E-06  9.52E-04  9.80E-03  0.99999
   1132.    8.834  6.38E-11  8.18E-09  7.42E-06  9.51E-04  0.00E+00  0.00E+00  7.42E-06  9.51E-04  9.82E-03  0.99999
   1134.    8.818  6.14E-11  7.89E-09  7.39E-06  9.50E-04  0.00E+00  0.00E+00  7.39E-06  9.50E-04  9.83E-03  0.99999
   1136.    8.803  5.90E-11  7.62E-09  7.36E-06  9.49E-04  0.00E+00  0.00E+00  7.36E-06  9.49E-04  9.85E-03  0.99999
   1138.    8.787  5.65E-11  7.31E-09  7.32E-06  9.48E-04  0.00E+00  0.00E+00  7.32E-06  9.48E-04  9.86E-03  0.99999
   1140.    8.772  5.40E-11  7.01E-09  7.29E-06  9.48E-04  0.00E+00  0.00E+00  7.29E-06  9.48E-04  9.87E-03  0.99999
   1142.    8.757  5.19E-11  6.77E-09  7.26E-06  9.47E-04  0.00E+00  0.00E+00  7.26E-06  9.47E-04  9.89E-03  0.99999
   1144.    8.741  5.02E-11  6.57E-09  7.23E-06  9.46E-04  0.00E+00  0.00E+00  7.23E-06  9.46E-04  9.90E-03  0.99999
   1146.    8.726  4.86E-11  6.38E-09  7.20E-06  9.45E-04  0.00E+00  0.00E+00  7.20E-06  9.45E-04  9.92E-03  0.99999
   1148.    8.711  4.71E-11  6.21E-09  7.16E-06  9.44E-04  0.00E+00  0.00E+00  7.16E-06  9.44E-04  9.93E-03  0.99999
   1150.    8.696  4.57E-11  6.04E-09  7.13E-06  9.43E-04  0.00E+00  0.00E+00  7.13E-06  9.43E-04  9.95E-03  0.99999
   1152.    8.681  4.44E-11  5.89E-09  7.10E-06  9.42E-04  0.00E+00  0.00E+00  7.10E-06  9.42E-04  9.96E-03  0.99999
   1154.    8.666  4.32E-11  5.75E-09  7.07E-06  9.42E-04  0.00E+00  0.00E+00  7.07E-06  9.42E-04  9.98E-03  0.99999
   1156.    8.651  4.19E-11  5.59E-09  7.04E-06  9.41E-04  0.00E+00  0.00E+00  7.04E-06  9.41E-04  9.99E-03  0.99999
   1158.    8.636  4.09E-11  5.49E-09  7.01E-06  9.40E-04  0.00E+00  0.00E+00  7.01E-06  9.40E-04  1.00E-02  0.99999
   1160.    8.621  3.99E-11  5.36E-09  6.98E-06  9.39E-04  0.00E+00  0.00E+00  6.98E-06  9.39E-04  1.00E-02  0.99999
   1162.    8.606  3.88E-11  5.24E-09  6.95E-06  9.38E-04  0.00E+00  0.00E+00  6.95E-06  9.38E-04  1.00E-02  0.99999
   1164.    8.591  3.79E-11  5.13E-09  6.91E-06  9.37E-04  0.00E+00  0.00E+00  6.91E-06  9.37E-04  1.00E-02  0.99999
   1166.    8.576  3.68E-11  5.01E-09  6.88E-06  9.36E-04  0.00E+00  0.00E+00  6.88E-06  9.36E-04  1.01E-02  0.99999
   1168.    8.562  3.58E-11  4.88E-09  6.85E-06  9.35E-04  0.00E+00  0.00E+00  6.85E-06  9.35E-04  1.01E-02  0.99999
   1170.    8.547  3.49E-11  4.77E-09  6.82E-06  9.34E-04  0.00E+00  0.00E+00  6.82E-06  9.34E-04  1.01E-02  0.99999
   1172.    8.532  3.41E-11  4.69E-09  6.79E-06  9.33E-04  0.00E+00  0.00E+00  6.79E-06  9.33E-04  1.01E-02  0.99999
   1174.    8.518  3.36E-11  4.63E-09  6.76E-06  9.32E-04  0.00E+00  0.00E+00  6.76E-06  9.32E-04  1.01E-02  0.99999
   1176.    8.503  3.29E-11  4.55E-09  6.73E-06  9.31E-04  0.00E+00  0.00E+00  6.73E-06  9.31E-04  1.01E-02  0.99999
   1178.    8.489  3.20E-11  4.44E-09  6.70E-06  9.30E-04  0.00E+00  0.00E+00  6.70E-06  9.30E-04  1.01E-02  0.99999
   1180.    8.475  3.12E-11  4.35E-09  6.67E-06  9.29E-04  0.00E+00  0.00E+00  6.67E-06  9.29E-04  1.02E-02  0.99999
   1182.    8.460  3.06E-11  4.28E-09  6.64E-06  9.27E-04  0.00E+00  0.00E+00  6.64E-06  9.27E-04  1.02E-02  0.99999
   1184.    8.446  3.02E-11  4.24E-09  6.61E-06  9.26E-04  0.00E+00  0.00E+00  6.61E-06  9.26E-04  1.02E-02  0.99999
   1186.    8.432  2.98E-11  4.19E-09  6.58E-06  9.25E-04  0.00E+00  0.00E+00  6.58E-06  9.25E-04  1.02E-02  0.99999
   1188.    8.418  2.91E-11  4.11E-09  6.55E-06  9.24E-04  0.00E+00  0.00E+00  6.55E-06  9.24E-04  1.02E-02  0.99999
   1190.    8.403  2.84E-11  4.03E-09  6.52E-06  9.23E-04  0.00E+00  0.00E+00  6.52E-06  9.23E-04  1.02E-02  0.99999
   1192.    8.389  2.80E-11  3.98E-09  6.49E-06  9.22E-04  0.00E+00  0.00E+00  6.49E-06  9.22E-04  1.02E-02  0.99999
   1194.    8.375  2.76E-11  3.93E-09  6.46E-06  9.21E-04  0.00E+00  0.00E+00  6.46E-06  9.21E-04  1.02E-02  0.99999
   1196.    8.361  2.72E-11  3.89E-09  6.43E-06  9.20E-04  0.00E+00  0.00E+00  6.43E-06  9.20E-04  1.03E-02  0.99999
   1198.    8.347  2.67E-11  3.84E-09  6.40E-06  9.18E-04  0.00E+00  0.00E+00  6.40E-06  9.18E-04  1.03E-02  0.99999
   1200.    8.333  2.64E-11  3.80E-09  6.37E-06  9.17E-04  0.00E+00  0.00E+00  6.37E-06  9.17E-04  1.03E-02  0.99999
  iv         1205
1                                             RADIANCE(WATTS/CM2-STER-XXX)
0  FREQ   WAVLEN    PATH THERMAL      SURFACE EMISSION    SURFACE REFLECTED     TOTAL RADIANCE   INTEGRAL    TOTAL
  (CM-1) (MICRN)    (CM-1)   (MICRN)    (CM-1)   (MICRN)    (CM-1)   (MICRN)    (CM-1)   (MICRN)    (CM-1)   TRANS

   1202.    8.319  2.62E-11  3.78E-09  6.34E-06  9.16E-04  0.00E+00  0.00E+00  6.34E-06  9.16E-04  1.03E-02  0.99999
   1204.    8.306  2.62E-11  3.80E-09  6.31E-06  9.15E-04  0.00E+00  0.00E+00  6.31E-06  9.15E-04  1.03E-02  0.99999
   1206.    8.292  2.72E-11  3.95E-09  6.28E-06  9.14E-04  0.00E+00  0.00E+00  6.28E-06  9.14E-04  1.03E-02  0.99999
   1208.    8.278  1.06E-10  1.55E-08  6.25E-06  9.12E-04  0.00E+00  0.00E+00  6.25E-06  9.12E-04  1.03E-02  0.99997
   1210.    8.264  4.78E-10  6.99E-08  6.22E-06  9.11E-04  0.00E+00  0.00E+00  6.22E-06  9.11E-04  1.03E-02  0.99988
   1212.    8.251  9.29E-10  1.37E-07  6.19E-06  9.10E-04  0.00E+00  0.00E+00  6.19E-06  9.10E-04  1.04E-02  0.99977
   1214.    8.237  1.40E-09  2.06E-07  6.16E-06  9.08E-04  0.00E+00  0.00E+00  6.16E-06  9.08E-04  1.04E-02  0.99966
   1216.    8.224  1.98E-09  2.93E-07  6.13E-06  9.07E-04  0.00E+00  0.00E+00  6.14E-06  9.07E-04  1.04E-02  0.99951
   1218.    8.210  2.68E-09  3.98E-07  6.10E-06  9.05E-04  0.00E+00  0.00E+00  6.11E-06  9.06E-04  1.04E-02  0.99932
   1220.    8.197  3.59E-09  5.35E-07  6.07E-06  9.04E-04  0.00E+00  0.00E+00  6.08E-06  9.04E-04  1.04E-02  0.99907
   1222.    8.183  4.43E-09  6.61E-07  6.04E-06  9.02E-04  0.00E+00  0.00E+00  6.05E-06  9.03E-04  1.04E-02  0.99881
   1224.    8.170  5.58E-09  8.36E-07  6.01E-06  9.01E-04  0.00E+00  0.00E+00  6.02E-06  9.02E-04  1.04E-02  0.99846
   1226.    8.157  7.27E-09  1.09E-06  5.98E-06  8.99E-04  0.00E+00  0.00E+00  5.99E-06  9.00E-04  1.04E-02  0.99796
   1228.    8.143  9.43E-09  1.42E-06  5.95E-06  8.97E-04  0.00E+00  0.00E+00  5.96E-06  8.98E-04  1.05E-02  0.99731
   1230.    8.130  1.23E-08  1.86E-06  5.92E-06  8.95E-04  0.00E+00  0.00E+00  5.93E-06  8.97E-04  1.05E-02  0.99639
   1232.    8.117  1.57E-08  2.38E-06  5.88E-06  8.93E-04  0.00E+00  0.00E+00  5.90E-06  8.95E-04  1.05E-02  0.99528
   1234.    8.104  1.91E-08  2.90E-06  5.85E-06  8.90E-04  0.00E+00  0.00E+00  5.86E-06  8.93E-04  1.05E-02  0.99410
   1236.    8.091  2.31E-08  3.53E-06  5.81E-06  8.87E-04  0.00E+00  0.00E+00  5.83E-06  8.91E-04  1.05E-02  0.99263
   1238.    8.078  2.96E-08  4.54E-06  5.77E-06  8.84E-04  0.00E+00  0.00E+00  5.80E-06  8.89E-04  1.05E-02  0.99024
   1240.    8.065  3.30E-08  5.07E-06  5.73E-06  8.81E-04  0.00E+00  0.00E+00  5.77E-06  8.86E-04  1.05E-02  0.98885
   1242.    8.052  3.83E-08  5.91E-06  5.69E-06  8.78E-04  0.00E+00  0.00E+00  5.73E-06  8.84E-04  1.05E-02  0.98674
   1244.    8.039  4.30E-08  6.65E-06  5.65E-06  8.75E-04  0.00E+00  0.00E+00  5.70E-06  8.82E-04  1.05E-02  0.98481
   1246.    8.026  4.61E-08  7.16E-06  5.62E-06  8.72E-04  0.00E+00  0.00E+00  5.67E-06  8.80E-04  1.06E-02  0.98339
   1248.    8.013  4.72E-08  7.35E-06  5.59E-06  8.70E-04  0.00E+00  0.00E+00  5.64E-06  8.78E-04  1.06E-02  0.98269
   1250.    8.000  4.56E-08  7.13E-06  5.56E-06  8.69E-04  0.00E+00  0.00E+00  5.61E-06  8.76E-04  1.06E-02  0.98302
   1252.    7.987  4.15E-08  6.51E-06  5.54E-06  8.69E-04  0.00E+00  0.00E+00  5.59E-06  8.75E-04  1.06E-02  0.98435
   1254.    7.974  3.61E-08  5.68E-06  5.53E-06  8.69E-04  0.00E+00  0.00E+00  5.56E-06  8.75E-04  1.06E-02  0.98621
   1256.    7.962  2.68E-08  4.24E-06  5.52E-06  8.71E-04  0.00E+00  0.00E+00  5.55E-06  8.75E-04  1.06E-02  0.98974
   1258.    7.949  1.39E-08  2.20E-06  5.52E-06  8.74E-04  0.00E+00  0.00E+00  5.54E-06  8.76E-04  1.06E-02  0.99479
   1260.    7.937  1.12E-08  1.78E-06  5.50E-06  8.73E-04  0.00E+00  0.00E+00  5.51E-06  8.75E-04  1.06E-02  0.99576
   1262.    7.924  1.93E-08  3.07E-06  5.46E-06  8.69E-04  0.00E+00  0.00E+00  5.47E-06  8.72E-04  1.06E-02  0.99245
   1264.    7.911  2.88E-08  4.60E-06  5.41E-06  8.64E-04  0.00E+00  0.00E+00  5.44E-06  8.69E-04  1.07E-02  0.98857
   1266.    7.899  3.63E-08  5.81E-06  5.36E-06  8.60E-04  0.00E+00  0.00E+00  5.40E-06  8.66E-04  1.07E-02  0.98551
   1268.    7.886  4.46E-08  7.18E-06  5.32E-06  8.55E-04  0.00E+00  0.00E+00  5.36E-06  8.63E-04  1.07E-02  0.98212
   1270.    7.874  4.66E-08  7.51E-06  5.29E-06  8.53E-04  0.00E+00  0.00E+00  5.34E-06  8.61E-04  1.07E-02  0.98138
   1272.    7.862  4.31E-08  6.98E-06  5.27E-06  8.53E-04  0.00E+00  0.00E+00  5.32E-06  8.60E-04  1.07E-02  0.98291
   1274.    7.849  4.17E-08  6.77E-06  5.25E-06  8.52E-04  0.00E+00  0.00E+00  5.29E-06  8.59E-04  1.07E-02  0.98361
   1276.    7.837  3.92E-08  6.38E-06  5.23E-06  8.52E-04  0.00E+00  0.00E+00  5.27E-06  8.58E-04  1.07E-02  0.98476
   1278.    7.825  3.55E-08  5.80E-06  5.21E-06  8.52E-04  0.00E+00  0.00E+00  5.25E-06  8.57E-04  1.07E-02  0.98637
   1280.    7.813  3.26E-08  5.35E-06  5.19E-06  8.51E-04  0.00E+00  0.00E+00  5.23E-06  8.56E-04  1.07E-02  0.98763
   1282.    7.800  2.53E-08  4.16E-06  5.18E-06  8.52E-04  0.00E+00  0.00E+00  5.21E-06  8.56E-04  1.08E-02  0.99055
   1284.    7.788  2.06E-08  3.39E-06  5.17E-06  8.52E-04  0.00E+00  0.00E+00  5.19E-06  8.55E-04  1.08E-02  0.99243
   1286.    7.776  1.64E-08  2.71E-06  5.15E-06  8.52E-04  0.00E+00  0.00E+00  5.17E-06  8.55E-04  1.08E-02  0.99406
   1288.    7.764  1.32E-08  2.18E-06  5.13E-06  8.51E-04  0.00E+00  0.00E+00  5.15E-06  8.54E-04  1.08E-02  0.99529
   1290.    7.752  9.07E-09  1.51E-06  5.11E-06  8.51E-04  0.00E+00  0.00E+00  5.12E-06  8.53E-04  1.08E-02  0.99678
   1292.    7.740  6.69E-09  1.12E-06  5.09E-06  8.50E-04  0.00E+00  0.00E+00  5.10E-06  8.51E-04  1.08E-02  0.99765
   1294.    7.728  5.06E-09  8.46E-07  5.07E-06  8.49E-04  0.00E+00  0.00E+00  5.08E-06  8.50E-04  1.08E-02  0.99824
   1296.    7.716  3.36E-09  5.65E-07  5.05E-06  8.48E-04  0.00E+00  0.00E+00  5.05E-06  8.49E-04  1.08E-02  0.99885
   1298.    7.704  2.39E-09  4.03E-07  5.03E-06  8.47E-04  0.00E+00  0.00E+00  5.03E-06  8.47E-04  1.08E-02  0.99919
   1300.    7.692  1.58E-09  2.67E-07  5.00E-06  8.45E-04  0.00E+00  0.00E+00  5.00E-06  8.46E-04  1.08E-02  0.99947
  iv         1305
1                                             RADIANCE(WATTS/CM2-STER-XXX)
0  FREQ   WAVLEN    PATH THERMAL      SURFACE EMISSION    SURFACE REFLECTED     TOTAL RADIANCE   INTEGRAL    TOTAL
  (CM-1) (MICRN)    (CM-1)   (MICRN)    (CM-1)   (MICRN)    (CM-1)   (MICRN)    (CM-1)   (MICRN)    (CM-1)   TRANS

   1302.    7.680  1.06E-09  1.79E-07  4.98E-06  8.44E-04  0.00E+00  0.00E+00  4.98E-06  8.44E-04  1.09E-02  0.99965
   1304.    7.669  6.89E-10  1.17E-07  4.95E-06  8.42E-04  0.00E+00  0.00E+00  4.95E-06  8.42E-04  1.09E-02  0.99977
   1306.    7.657  2.98E-10  5.08E-08  4.93E-06  8.41E-04  0.00E+00  0.00E+00  4.93E-06  8.41E-04  1.09E-02  0.99990
   1308.    7.645  5.83E-11  9.97E-09  4.91E-06  8.39E-04  0.00E+00  0.00E+00  4.91E-06  8.39E-04  1.09E-02  0.99998
   1310.    7.634  1.52E-11  2.61E-09  4.88E-06  8.38E-04  0.00E+00  0.00E+00  4.88E-06  8.38E-04  1.09E-02  0.99999
   1312.    7.622  1.45E-11  2.50E-09  4.86E-06  8.36E-04  0.00E+00  0.00E+00  4.86E-06  8.36E-04  1.09E-02  0.99999
   1314.    7.610  1.53E-11  2.64E-09  4.83E-06  8.34E-04  0.00E+00  0.00E+00  4.83E-06  8.34E-04  1.09E-02  0.99999
   1316.    7.599  8.37E-11  1.45E-08  4.81E-06  8.32E-04  0.00E+00  0.00E+00  4.81E-06  8.33E-04  1.09E-02  0.99997
   1318.    7.587  2.70E-10  4.68E-08  4.78E-06  8.31E-04  0.00E+00  0.00E+00  4.78E-06  8.31E-04  1.09E-02  0.99989
   1320.    7.576  4.06E-10  7.07E-08  4.76E-06  8.29E-04  0.00E+00  0.00E+00  4.76E-06  8.29E-04  1.09E-02  0.99984
   1322.    7.564  6.34E-10  1.11E-07  4.73E-06  8.27E-04  0.00E+00  0.00E+00  4.73E-06  8.27E-04  1.10E-02  0.99975
   1324.    7.553  9.43E-10  1.65E-07  4.71E-06  8.25E-04  0.00E+00  0.00E+00  4.71E-06  8.26E-04  1.10E-02  0.99964
   1326.    7.541  1.35E-09  2.37E-07  4.68E-06  8.24E-04  0.00E+00  0.00E+00  4.69E-06  8.24E-04  1.10E-02  0.99948
   1328.    7.530  1.90E-09  3.35E-07  4.66E-06  8.22E-04  0.00E+00  0.00E+00  4.66E-06  8.22E-04  1.10E-02  0.99928
   1330.    7.519  2.63E-09  4.65E-07  4.63E-06  8.20E-04  0.00E+00  0.00E+00  4.64E-06  8.20E-04  1.10E-02  0.99899
   1332.    7.508  3.66E-09  6.50E-07  4.61E-06  8.18E-04  0.00E+00  0.00E+00  4.61E-06  8.18E-04  1.10E-02  0.99857
   1334.    7.496  4.78E-09  8.51E-07  4.58E-06  8.16E-04  0.00E+00  0.00E+00  4.59E-06  8.16E-04  1.10E-02  0.99811
   1336.    7.485  7.15E-09  1.28E-06  4.56E-06  8.13E-04  0.00E+00  0.00E+00  4.56E-06  8.14E-04  1.10E-02  0.99714
   1338.    7.474  9.40E-09  1.68E-06  4.53E-06  8.11E-04  0.00E+00  0.00E+00  4.54E-06  8.12E-04  1.10E-02  0.99618
   1340.    7.463  1.19E-08  2.14E-06  4.50E-06  8.08E-04  0.00E+00  0.00E+00  4.51E-06  8.10E-04  1.10E-02  0.99504
   1342.    7.452  1.67E-08  3.02E-06  4.47E-06  8.04E-04  0.00E+00  0.00E+00  4.48E-06  8.07E-04  1.10E-02  0.99282
   1344.    7.440  2.18E-08  3.94E-06  4.43E-06  8.01E-04  0.00E+00  0.00E+00  4.45E-06  8.05E-04  1.11E-02  0.99034
   1346.    7.429  2.53E-08  4.58E-06  4.40E-06  7.97E-04  0.00E+00  0.00E+00  4.43E-06  8.02E-04  1.11E-02  0.98850
   1348.    7.418  2.95E-08  5.36E-06  4.37E-06  7.94E-04  0.00E+00  0.00E+00  4.40E-06  7.99E-04  1.11E-02  0.98619
   1350.    7.407  3.35E-08  6.11E-06  4.34E-06  7.90E-04  0.00E+00  0.00E+00  4.37E-06  7.96E-04  1.11E-02  0.98395
   1352.    7.396  3.88E-08  7.09E-06  4.30E-06  7.86E-04  0.00E+00  0.00E+00  4.34E-06  7.93E-04  1.11E-02  0.98090
   1354.    7.386  3.75E-08  6.88E-06  4.28E-06  7.84E-04  0.00E+00  0.00E+00  4.32E-06  7.91E-04  1.11E-02  0.98116
   1356.    7.375  3.71E-08  6.81E-06  4.26E-06  7.83E-04  0.00E+00  0.00E+00  4.29E-06  7.89E-04  1.11E-02  0.98107
   1358.    7.364  3.46E-08  6.38E-06  4.24E-06  7.82E-04  0.00E+00  0.00E+00  4.27E-06  7.88E-04  1.11E-02  0.98214
   1360.    7.353  3.10E-08  5.74E-06  4.22E-06  7.81E-04  0.00E+00  0.00E+00  4.25E-06  7.87E-04  1.11E-02  0.98372
   1362.    7.342  2.18E-08  4.04E-06  4.22E-06  7.83E-04  0.00E+00  0.00E+00  4.24E-06  7.87E-04  1.11E-02  0.98858
   1364.    7.331  1.33E-08  2.47E-06  4.22E-06  7.85E-04  0.00E+00  0.00E+00  4.23E-06  7.88E-04  1.11E-02  0.99314
   1366.    7.321  9.24E-09  1.72E-06  4.21E-06  7.85E-04  0.00E+00  0.00E+00  4.22E-06  7.87E-04  1.11E-02  0.99530
   1368.    7.310  1.45E-08  2.72E-06  4.17E-06  7.81E-04  0.00E+00  0.00E+00  4.19E-06  7.84E-04  1.12E-02  0.99237
   1370.    7.299  2.29E-08  4.30E-06  4.13E-06  7.75E-04  0.00E+00  0.00E+00  4.15E-06  7.80E-04  1.12E-02  0.98769
   1372.    7.289  2.99E-08  5.64E-06  4.09E-06  7.71E-04  0.00E+00  0.00E+00  4.12E-06  7.76E-04  1.12E-02  0.98387
   1374.    7.278  3.69E-08  6.97E-06  4.06E-06  7.66E-04  0.00E+00  0.00E+00  4.09E-06  7.73E-04  1.12E-02  0.97998
   1376.    7.267  3.73E-08  7.06E-06  4.04E-06  7.64E-04  0.00E+00  0.00E+00  4.07E-06  7.71E-04  1.12E-02  0.97989
   1378.    7.257  3.81E-08  7.23E-06  4.01E-06  7.62E-04  0.00E+00  0.00E+00  4.05E-06  7.69E-04  1.12E-02  0.97955
   1380.    7.246  3.71E-08  7.07E-06  3.99E-06  7.61E-04  0.00E+00  0.00E+00  4.03E-06  7.68E-04  1.12E-02  0.98017
   1382.    7.236  3.46E-08  6.61E-06  3.98E-06  7.60E-04  0.00E+00  0.00E+00  4.01E-06  7.67E-04  1.12E-02  0.98166
   1384.    7.225  3.09E-08  5.92E-06  3.97E-06  7.60E-04  0.00E+00  0.00E+00  4.00E-06  7.66E-04  1.12E-02  0.98377
   1386.    7.215  2.64E-08  5.07E-06  3.96E-06  7.60E-04  0.00E+00  0.00E+00  3.98E-06  7.65E-04  1.12E-02  0.98627
   1388.    7.205  2.12E-08  4.09E-06  3.95E-06  7.60E-04  0.00E+00  0.00E+00  3.97E-06  7.64E-04  1.12E-02  0.98911
   1390.    7.194  1.77E-08  3.43E-06  3.93E-06  7.60E-04  0.00E+00  0.00E+00  3.95E-06  7.63E-04  1.12E-02  0.99107
   1392.    7.184  1.60E-08  3.11E-06  3.92E-06  7.59E-04  0.00E+00  0.00E+00  3.93E-06  7.62E-04  1.13E-02  0.99206
   1394.    7.174  1.34E-08  2.60E-06  3.90E-06  7.58E-04  0.00E+00  0.00E+00  3.91E-06  7.61E-04  1.13E-02  0.99349
   1396.    7.163  1.11E-08  2.16E-06  3.89E-06  7.57E-04  0.00E+00  0.00E+00  3.90E-06  7.59E-04  1.13E-02  0.99470
   1398.    7.153  9.34E-09  1.83E-06  3.87E-06  7.56E-04  0.00E+00  0.00E+00  3.88E-06  7.58E-04  1.13E-02  0.99564
   1400.    7.143  7.97E-09  1.56E-06  3.85E-06  7.55E-04  0.00E+00  0.00E+00  3.86E-06  7.56E-04  1.13E-02  0.99635
  iv         1405
1                                             RADIANCE(WATTS/CM2-STER-XXX)
0  FREQ   WAVLEN    PATH THERMAL      SURFACE EMISSION    SURFACE REFLECTED     TOTAL RADIANCE   INTEGRAL    TOTAL
  (CM-1) (MICRN)    (CM-1)   (MICRN)    (CM-1)   (MICRN)    (CM-1)   (MICRN)    (CM-1)   (MICRN)    (CM-1)   TRANS

   1402.    7.133  6.60E-09  1.30E-06  3.83E-06  7.53E-04  0.00E+00  0.00E+00  3.84E-06  7.55E-04  1.13E-02  0.99701
   1404.    7.123  5.75E-09  1.13E-06  3.81E-06  7.52E-04  0.00E+00  0.00E+00  3.82E-06  7.53E-04  1.13E-02  0.99741
   1406.    7.112  5.15E-09  1.02E-06  3.79E-06  7.50E-04  0.00E+00  0.00E+00  3.80E-06  7.51E-04  1.13E-02  0.99770
   1408.    7.102  4.86E-09  9.64E-07  3.77E-06  7.48E-04  0.00E+00  0.00E+00  3.78E-06  7.49E-04  1.13E-02  0.99784
   1410.    7.092  4.98E-09  9.91E-07  3.75E-06  7.46E-04  0.00E+00  0.00E+00  3.76E-06  7.47E-04  1.13E-02  0.99782
   1412.    7.082  5.46E-09  1.09E-06  3.73E-06  7.44E-04  0.00E+00  0.00E+00  3.74E-06  7.45E-04  1.13E-02  0.99762
   1414.    7.072  6.11E-09  1.22E-06  3.71E-06  7.42E-04  0.00E+00  0.00E+00  3.72E-06  7.44E-04  1.13E-02  0.99733
   1416.    7.062  7.50E-09  1.50E-06  3.69E-06  7.40E-04  0.00E+00  0.00E+00  3.70E-06  7.41E-04  1.13E-02  0.99670
   1418.    7.052  9.39E-09  1.89E-06  3.67E-06  7.37E-04  0.00E+00  0.00E+00  3.68E-06  7.39E-04  1.14E-02  0.99583
   1420.    7.042  1.18E-08  2.39E-06  3.64E-06  7.35E-04  0.00E+00  0.00E+00  3.66E-06  7.37E-04  1.14E-02  0.99471
   1422.    7.032  1.54E-08  3.11E-06  3.62E-06  7.32E-04  0.00E+00  0.00E+00  3.63E-06  7.35E-04  1.14E-02  0.99307
   1424.    7.022  1.98E-08  4.02E-06  3.59E-06  7.28E-04  0.00E+00  0.00E+00  3.61E-06  7.32E-04  1.14E-02  0.99103
   1426.    7.013  2.61E-08  5.31E-06  3.56E-06  7.24E-04  0.00E+00  0.00E+00  3.59E-06  7.30E-04  1.14E-02  0.98810
   1428.    7.003  3.42E-08  6.97E-06  3.53E-06  7.20E-04  0.00E+00  0.00E+00  3.56E-06  7.27E-04  1.14E-02  0.98432
   1430.    6.993  4.42E-08  9.04E-06  3.49E-06  7.14E-04  0.00E+00  0.00E+00  3.54E-06  7.23E-04  1.14E-02  0.97959
   1432.    6.983  5.87E-08  1.20E-05  3.45E-06  7.07E-04  0.00E+00  0.00E+00  3.51E-06  7.19E-04  1.14E-02  0.97272
   1434.    6.974  7.42E-08  1.53E-05  3.40E-06  7.00E-04  0.00E+00  0.00E+00  3.48E-06  7.15E-04  1.14E-02  0.96528
   1436.    6.964  8.61E-08  1.78E-05  3.37E-06  6.94E-04  0.00E+00  0.00E+00  3.45E-06  7.12E-04  1.14E-02  0.95967
   1438.    6.954  9.44E-08  1.95E-05  3.33E-06  6.90E-04  0.00E+00  0.00E+00  3.43E-06  7.09E-04  1.14E-02  0.95585
   1440.    6.944  1.02E-07  2.12E-05  3.30E-06  6.85E-04  0.00E+00  0.00E+00  3.41E-06  7.06E-04  1.14E-02  0.95230
   1442.    6.935  1.09E-07  2.27E-05  3.27E-06  6.81E-04  0.00E+00  0.00E+00  3.38E-06  7.04E-04  1.14E-02  0.94889
   1444.    6.925  1.16E-07  2.43E-05  3.25E-06  6.77E-04  0.00E+00  0.00E+00  3.36E-06  7.01E-04  1.14E-02  0.94550
   1446.    6.916  1.23E-07  2.58E-05  3.22E-06  6.73E-04  0.00E+00  0.00E+00  3.34E-06  6.98E-04  1.15E-02  0.94223
   1448.    6.906  1.30E-07  2.72E-05  3.19E-06  6.68E-04  0.00E+00  0.00E+00  3.32E-06  6.96E-04  1.15E-02  0.93909
   1450.    6.897  1.36E-07  2.86E-05  3.16E-06  6.64E-04  0.00E+00  0.00E+00  3.30E-06  6.93E-04  1.15E-02  0.93591
   1452.    6.887  1.42E-07  3.00E-05  3.13E-06  6.60E-04  0.00E+00  0.00E+00  3.27E-06  6.90E-04  1.15E-02  0.93271
   1454.    6.878  1.49E-07  3.14E-05  3.10E-06  6.56E-04  0.00E+00  0.00E+00  3.25E-06  6.88E-04  1.15E-02  0.92946
   1456.    6.868  1.55E-07  3.29E-05  3.08E-06  6.52E-04  0.00E+00  0.00E+00  3.23E-06  6.85E-04  1.15E-02  0.92581
   1458.    6.859  1.62E-07  3.44E-05  3.04E-06  6.47E-04  0.00E+00  0.00E+00  3.21E-06  6.82E-04  1.15E-02  0.92174
   1460.    6.849  1.68E-07  3.59E-05  3.01E-06  6.43E-04  0.00E+00  0.00E+00  3.18E-06  6.79E-04  1.15E-02  0.91775
   1462.    6.840  1.75E-07  3.74E-05  2.98E-06  6.38E-04  0.00E+00  0.00E+00  3.16E-06  6.75E-04  1.15E-02  0.91361
   1464.    6.831  1.81E-07  3.88E-05  2.95E-06  6.33E-04  0.00E+00  0.00E+00  3.14E-06  6.72E-04  1.15E-02  0.90946
   1466.    6.821  1.87E-07  4.01E-05  2.93E-06  6.29E-04  0.00E+00  0.00E+00  3.11E-06  6.69E-04  1.15E-02  0.90574
   1468.    6.812  1.92E-07  4.13E-05  2.90E-06  6.25E-04  0.00E+00  0.00E+00  3.09E-06  6.66E-04  1.15E-02  0.90240
   1470.    6.803  1.96E-07  4.24E-05  2.87E-06  6.21E-04  0.00E+00  0.00E+00  3.07E-06  6.63E-04  1.15E-02  0.89907
   1472.    6.793  2.01E-07  4.36E-05  2.85E-06  6.17E-04  0.00E+00  0.00E+00  3.05E-06  6.61E-04  1.15E-02  0.89600
   1474.    6.784  2.06E-07  4.48E-05  2.82E-06  6.13E-04  0.00E+00  0.00E+00  3.03E-06  6.58E-04  1.15E-02  0.89285
   1476.    6.775  2.12E-07  4.63E-05  2.80E-06  6.09E-04  0.00E+00  0.00E+00  3.01E-06  6.55E-04  1.15E-02  0.88927
   1478.    6.766  2.19E-07  4.78E-05  2.77E-06  6.05E-04  0.00E+00  0.00E+00  2.99E-06  6.52E-04  1.16E-02  0.88533
   1480.    6.757  2.24E-07  4.91E-05  2.74E-06  6.00E-04  0.00E+00  0.00E+00  2.97E-06  6.49E-04  1.16E-02  0.88175
   1482.    6.748  2.26E-07  4.96E-05  2.72E-06  5.97E-04  0.00E+00  0.00E+00  2.94E-06  6.46E-04  1.16E-02  0.87919
   1484.    6.739  2.25E-07  4.96E-05  2.70E-06  5.94E-04  0.00E+00  0.00E+00  2.92E-06  6.44E-04  1.16E-02  0.87736
   1486.    6.729  2.24E-07  4.95E-05  2.68E-06  5.91E-04  0.00E+00  0.00E+00  2.90E-06  6.41E-04  1.16E-02  0.87562
   1488.    6.720  2.23E-07  4.94E-05  2.66E-06  5.88E-04  0.00E+00  0.00E+00  2.88E-06  6.38E-04  1.16E-02  0.87386
   1490.    6.711  2.24E-07  4.97E-05  2.64E-06  5.85E-04  0.00E+00  0.00E+00  2.86E-06  6.35E-04  1.16E-02  0.87167
   1492.    6.702  2.28E-07  5.08E-05  2.61E-06  5.81E-04  0.00E+00  0.00E+00  2.84E-06  6.32E-04  1.16E-02  0.86837
   1494.    6.693  2.34E-07  5.23E-05  2.58E-06  5.77E-04  0.00E+00  0.00E+00  2.82E-06  6.29E-04  1.16E-02  0.86444
   1496.    6.684  2.40E-07  5.37E-05  2.56E-06  5.73E-04  0.00E+00  0.00E+00  2.80E-06  6.26E-04  1.16E-02  0.86077
   1498.    6.676  2.45E-07  5.49E-05  2.53E-06  5.69E-04  0.00E+00  0.00E+00  2.78E-06  6.24E-04  1.16E-02  0.85736
   1500.    6.667  2.49E-07  5.61E-05  2.51E-06  5.65E-04  0.00E+00  0.00E+00  2.76E-06  6.21E-04  1.16E-02  0.85414
  iv         1505
1                                             RADIANCE(WATTS/CM2-STER-XXX)
0  FREQ   WAVLEN    PATH THERMAL      SURFACE EMISSION    SURFACE REFLECTED     TOTAL RADIANCE   INTEGRAL    TOTAL
  (CM-1) (MICRN)    (CM-1)   (MICRN)    (CM-1)   (MICRN)    (CM-1)   (MICRN)    (CM-1)   (MICRN)    (CM-1)   TRANS

   1502.    6.658  2.52E-07  5.69E-05  2.49E-06  5.62E-04  0.00E+00  0.00E+00  2.74E-06  6.19E-04  1.16E-02  0.85183
   1504.    6.649  2.54E-07  5.74E-05  2.47E-06  5.59E-04  0.00E+00  0.00E+00  2.72E-06  6.16E-04  1.16E-02  0.84989
   1506.    6.640  2.56E-07  5.80E-05  2.45E-06  5.56E-04  0.00E+00  0.00E+00  2.71E-06  6.14E-04  1.16E-02  0.84778
   1508.    6.631  2.58E-07  5.86E-05  2.43E-06  5.53E-04  0.00E+00  0.00E+00  2.69E-06  6.12E-04  1.16E-02  0.84593
   1510.    6.623  2.60E-07  5.92E-05  2.41E-06  5.50E-04  0.00E+00  0.00E+00  2.67E-06  6.09E-04  1.16E-02  0.84359
   1512.    6.614  2.64E-07  6.03E-05  2.39E-06  5.45E-04  0.00E+00  0.00E+00  2.65E-06  6.06E-04  1.16E-02  0.83933
   1514.    6.605  2.69E-07  6.16E-05  2.36E-06  5.41E-04  0.00E+00  0.00E+00  2.63E-06  6.02E-04  1.17E-02  0.83436
   1516.    6.596  2.74E-07  6.29E-05  2.33E-06  5.36E-04  0.00E+00  0.00E+00  2.60E-06  5.98E-04  1.17E-02  0.82919
   1518.    6.588  2.79E-07  6.43E-05  2.30E-06  5.30E-04  0.00E+00  0.00E+00  2.58E-06  5.95E-04  1.17E-02  0.82365
   1520.    6.579  2.84E-07  6.56E-05  2.27E-06  5.25E-04  0.00E+00  0.00E+00  2.56E-06  5.91E-04  1.17E-02  0.81816
   1522.    6.570  2.89E-07  6.70E-05  2.25E-06  5.20E-04  0.00E+00  0.00E+00  2.53E-06  5.87E-04  1.17E-02  0.81256
   1524.    6.562  2.94E-07  6.84E-05  2.22E-06  5.15E-04  0.00E+00  0.00E+00  2.51E-06  5.83E-04  1.17E-02  0.80663
   1526.    6.553  3.00E-07  7.00E-05  2.19E-06  5.09E-04  0.00E+00  0.00E+00  2.49E-06  5.79E-04  1.17E-02  0.80065
   1528.    6.545  3.08E-07  7.18E-05  2.16E-06  5.04E-04  0.00E+00  0.00E+00  2.47E-06  5.76E-04  1.17E-02  0.79453
   1530.    6.536  3.16E-07  7.41E-05  2.13E-06  4.98E-04  0.00E+00  0.00E+00  2.44E-06  5.72E-04  1.17E-02  0.78746
   1532.    6.527  3.28E-07  7.70E-05  2.09E-06  4.91E-04  0.00E+00  0.00E+00  2.42E-06  5.68E-04  1.17E-02  0.77853
   1534.    6.519  3.41E-07  8.03E-05  2.05E-06  4.83E-04  0.00E+00  0.00E+00  2.39E-06  5.63E-04  1.17E-02  0.76867
   1536.    6.510  3.54E-07  8.34E-05  2.01E-06  4.75E-04  0.00E+00  0.00E+00  2.37E-06  5.59E-04  1.17E-02  0.75887
   1538.    6.502  3.66E-07  8.65E-05  1.98E-06  4.68E-04  0.00E+00  0.00E+00  2.34E-06  5.54E-04  1.17E-02  0.74919
   1540.    6.494  3.76E-07  8.91E-05  1.94E-06  4.61E-04  0.00E+00  0.00E+00  2.32E-06  5.50E-04  1.17E-02  0.74071
   1542.    6.485  3.81E-07  9.07E-05  1.92E-06  4.56E-04  0.00E+00  0.00E+00  2.30E-06  5.47E-04  1.17E-02  0.73533
   1544.    6.477  3.85E-07  9.18E-05  1.90E-06  4.52E-04  0.00E+00  0.00E+00  2.28E-06  5.44E-04  1.17E-02  0.73131
   1546.    6.468  3.89E-07  9.29E-05  1.88E-06  4.49E-04  0.00E+00  0.00E+00  2.27E-06  5.41E-04  1.17E-02  0.72726
   1548.    6.460  3.92E-07  9.40E-05  1.86E-06  4.45E-04  0.00E+00  0.00E+00  2.25E-06  5.39E-04  1.17E-02  0.72314
   1550.    6.452  3.95E-07  9.49E-05  1.84E-06  4.41E-04  0.00E+00  0.00E+00  2.23E-06  5.36E-04  1.17E-02  0.71937
   1552.    6.443  3.97E-07  9.56E-05  1.82E-06  4.38E-04  0.00E+00  0.00E+00  2.21E-06  5.33E-04  1.17E-02  0.71636
   1554.    6.435  3.97E-07  9.60E-05  1.80E-06  4.35E-04  0.00E+00  0.00E+00  2.20E-06  5.31E-04  1.17E-02  0.71390
   1556.    6.427  3.92E-07  9.49E-05  1.80E-06  4.35E-04  0.00E+00  0.00E+00  2.19E-06  5.30E-04  1.18E-02  0.71603
   1558.    6.418  3.80E-07  9.24E-05  1.80E-06  4.37E-04  0.00E+00  0.00E+00  2.18E-06  5.30E-04  1.18E-02  0.72284
   1560.    6.410  3.69E-07  8.98E-05  1.81E-06  4.40E-04  0.00E+00  0.00E+00  2.18E-06  5.30E-04  1.18E-02  0.72942
   1562.    6.402  3.59E-07  8.76E-05  1.81E-06  4.42E-04  0.00E+00  0.00E+00  2.17E-06  5.29E-04  1.18E-02  0.73481
   1564.    6.394  3.50E-07  8.56E-05  1.81E-06  4.43E-04  0.00E+00  0.00E+00  2.16E-06  5.29E-04  1.18E-02  0.73982
   1566.    6.386  3.40E-07  8.35E-05  1.82E-06  4.45E-04  0.00E+00  0.00E+00  2.16E-06  5.29E-04  1.18E-02  0.74505
   1568.    6.378  3.31E-07  8.14E-05  1.82E-06  4.47E-04  0.00E+00  0.00E+00  2.15E-06  5.28E-04  1.18E-02  0.75045
   1570.    6.369  3.22E-07  7.95E-05  1.82E-06  4.49E-04  0.00E+00  0.00E+00  2.14E-06  5.28E-04  1.18E-02  0.75561
   1572.    6.361  3.15E-07  7.78E-05  1.82E-06  4.50E-04  0.00E+00  0.00E+00  2.14E-06  5.28E-04  1.18E-02  0.76029
   1574.    6.353  3.08E-07  7.62E-05  1.82E-06  4.51E-04  0.00E+00  0.00E+00  2.13E-06  5.27E-04  1.18E-02  0.76467
   1576.    6.345  3.02E-07  7.50E-05  1.82E-06  4.51E-04  0.00E+00  0.00E+00  2.12E-06  5.26E-04  1.18E-02  0.76793
   1578.    6.337  2.98E-07  7.42E-05  1.81E-06  4.51E-04  0.00E+00  0.00E+00  2.11E-06  5.25E-04  1.18E-02  0.77014
   1580.    6.329  2.94E-07  7.33E-05  1.81E-06  4.51E-04  0.00E+00  0.00E+00  2.10E-06  5.24E-04  1.18E-02  0.77227
   1582.    6.321  2.89E-07  7.24E-05  1.80E-06  4.51E-04  0.00E+00  0.00E+00  2.09E-06  5.23E-04  1.18E-02  0.77476
   1584.    6.313  2.84E-07  7.13E-05  1.80E-06  4.51E-04  0.00E+00  0.00E+00  2.08E-06  5.23E-04  1.18E-02  0.77778
   1586.    6.305  2.80E-07  7.04E-05  1.79E-06  4.51E-04  0.00E+00  0.00E+00  2.07E-06  5.22E-04  1.18E-02  0.78039
   1588.    6.297  2.76E-07  6.95E-05  1.79E-06  4.51E-04  0.00E+00  0.00E+00  2.06E-06  5.21E-04  1.18E-02  0.78256
   1590.    6.289  2.72E-07  6.88E-05  1.78E-06  4.50E-04  0.00E+00  0.00E+00  2.05E-06  5.19E-04  1.18E-02  0.78420
   1592.    6.281  2.70E-07  6.85E-05  1.77E-06  4.49E-04  0.00E+00  0.00E+00  2.04E-06  5.18E-04  1.18E-02  0.78441
   1594.    6.274  2.68E-07  6.81E-05  1.76E-06  4.48E-04  0.00E+00  0.00E+00  2.03E-06  5.16E-04  1.18E-02  0.78444
   1596.    6.266  2.66E-07  6.78E-05  1.75E-06  4.46E-04  0.00E+00  0.00E+00  2.02E-06  5.14E-04  1.18E-02  0.78473
   1598.    6.258  2.64E-07  6.75E-05  1.74E-06  4.45E-04  0.00E+00  0.00E+00  2.01E-06  5.12E-04  1.18E-02  0.78472
   1600.    6.250  2.62E-07  6.71E-05  1.73E-06  4.43E-04  0.00E+00  0.00E+00  1.99E-06  5.11E-04  1.18E-02  0.78493
  iv         1605
1                                             RADIANCE(WATTS/CM2-STER-XXX)
0  FREQ   WAVLEN    PATH THERMAL      SURFACE EMISSION    SURFACE REFLECTED     TOTAL RADIANCE   INTEGRAL    TOTAL
  (CM-1) (MICRN)    (CM-1)   (MICRN)    (CM-1)   (MICRN)    (CM-1)   (MICRN)    (CM-1)   (MICRN)    (CM-1)   TRANS

   1602.    6.242  2.59E-07  6.66E-05  1.72E-06  4.42E-04  0.00E+00  0.00E+00  1.98E-06  5.09E-04  1.18E-02  0.78553
   1604.    6.234  2.57E-07  6.60E-05  1.71E-06  4.41E-04  0.00E+00  0.00E+00  1.97E-06  5.07E-04  1.19E-02  0.78621
   1606.    6.227  2.53E-07  6.53E-05  1.71E-06  4.40E-04  0.00E+00  0.00E+00  1.96E-06  5.06E-04  1.19E-02  0.78752
   1608.    6.219  2.50E-07  6.47E-05  1.70E-06  4.40E-04  0.00E+00  0.00E+00  1.95E-06  5.04E-04  1.19E-02  0.78867
   1610.    6.211  2.47E-07  6.40E-05  1.69E-06  4.39E-04  0.00E+00  0.00E+00  1.94E-06  5.03E-04  1.19E-02  0.78997
   1612.    6.203  2.43E-07  6.31E-05  1.69E-06  4.38E-04  0.00E+00  0.00E+00  1.93E-06  5.02E-04  1.19E-02  0.79202
   1614.    6.196  2.39E-07  6.22E-05  1.68E-06  4.38E-04  0.00E+00  0.00E+00  1.92E-06  5.00E-04  1.19E-02  0.79407
   1616.    6.188  2.35E-07  6.12E-05  1.68E-06  4.38E-04  0.00E+00  0.00E+00  1.91E-06  4.99E-04  1.19E-02  0.79648
   1618.    6.180  2.30E-07  6.02E-05  1.67E-06  4.38E-04  0.00E+00  0.00E+00  1.90E-06  4.98E-04  1.19E-02  0.79924
   1620.    6.173  2.26E-07  5.93E-05  1.67E-06  4.38E-04  0.00E+00  0.00E+00  1.89E-06  4.97E-04  1.19E-02  0.80195
   1622.    6.165  2.21E-07  5.82E-05  1.67E-06  4.38E-04  0.00E+00  0.00E+00  1.89E-06  4.96E-04  1.19E-02  0.80524
   1624.    6.158  2.16E-07  5.71E-05  1.66E-06  4.38E-04  0.00E+00  0.00E+00  1.88E-06  4.96E-04  1.19E-02  0.80850
   1626.    6.150  2.12E-07  5.59E-05  1.66E-06  4.39E-04  0.00E+00  0.00E+00  1.87E-06  4.95E-04  1.19E-02  0.81207
   1628.    6.143  2.06E-07  5.47E-05  1.66E-06  4.39E-04  0.00E+00  0.00E+00  1.86E-06  4.94E-04  1.19E-02  0.81598
   1630.    6.135  2.01E-07  5.35E-05  1.66E-06  4.40E-04  0.00E+00  0.00E+00  1.86E-06  4.93E-04  1.19E-02  0.81975
   1632.    6.127  1.95E-07  5.20E-05  1.65E-06  4.41E-04  0.00E+00  0.00E+00  1.85E-06  4.93E-04  1.19E-02  0.82381
   1634.    6.120  1.89E-07  5.05E-05  1.65E-06  4.41E-04  0.00E+00  0.00E+00  1.84E-06  4.92E-04  1.19E-02  0.82789
   1636.    6.112  1.83E-07  4.90E-05  1.65E-06  4.42E-04  0.00E+00  0.00E+00  1.83E-06  4.91E-04  1.19E-02  0.83192
   1638.    6.105  1.77E-07  4.75E-05  1.65E-06  4.43E-04  0.00E+00  0.00E+00  1.83E-06  4.90E-04  1.19E-02  0.83642
   1640.    6.098  1.71E-07  4.60E-05  1.65E-06  4.44E-04  0.00E+00  0.00E+00  1.82E-06  4.89E-04  1.19E-02  0.84090
   1642.    6.090  1.65E-07  4.46E-05  1.65E-06  4.44E-04  0.00E+00  0.00E+00  1.81E-06  4.89E-04  1.19E-02  0.84546
   1644.    6.083  1.60E-07  4.33E-05  1.65E-06  4.45E-04  0.00E+00  0.00E+00  1.81E-06  4.88E-04  1.19E-02  0.85000
   1646.    6.075  1.55E-07  4.20E-05  1.65E-06  4.46E-04  0.00E+00  0.00E+00  1.80E-06  4.88E-04  1.19E-02  0.85437
   1648.    6.068  1.50E-07  4.07E-05  1.64E-06  4.47E-04  0.00E+00  0.00E+00  1.79E-06  4.87E-04  1.19E-02  0.85899
   1650.    6.061  1.45E-07  3.95E-05  1.64E-06  4.47E-04  0.00E+00  0.00E+00  1.79E-06  4.87E-04  1.19E-02  0.86347
   1652.    6.053  1.41E-07  3.83E-05  1.64E-06  4.48E-04  0.00E+00  0.00E+00  1.78E-06  4.86E-04  1.19E-02  0.86774
   1654.    6.046  1.36E-07  3.72E-05  1.64E-06  4.49E-04  0.00E+00  0.00E+00  1.78E-06  4.86E-04  1.19E-02  0.87197
   1656.    6.039  1.31E-07  3.60E-05  1.64E-06  4.49E-04  0.00E+00  0.00E+00  1.77E-06  4.85E-04  1.19E-02  0.87630
   1658.    6.031  1.26E-07  3.46E-05  1.64E-06  4.50E-04  0.00E+00  0.00E+00  1.76E-06  4.85E-04  1.20E-02  0.88099
   1660.    6.024  1.20E-07  3.32E-05  1.64E-06  4.51E-04  0.00E+00  0.00E+00  1.76E-06  4.84E-04  1.20E-02  0.88574
   1662.    6.017  1.15E-07  3.18E-05  1.64E-06  4.52E-04  0.00E+00  0.00E+00  1.75E-06  4.83E-04  1.20E-02  0.89036
   1664.    6.010  1.10E-07  3.05E-05  1.63E-06  4.52E-04  0.00E+00  0.00E+00  1.74E-06  4.83E-04  1.20E-02  0.89498
   1666.    6.002  1.05E-07  2.91E-05  1.63E-06  4.53E-04  0.00E+00  0.00E+00  1.74E-06  4.82E-04  1.20E-02  0.89961
   1668.    5.995  9.97E-08  2.77E-05  1.63E-06  4.54E-04  0.00E+00  0.00E+00  1.73E-06  4.82E-04  1.20E-02  0.90439
   1670.    5.988  9.46E-08  2.64E-05  1.63E-06  4.55E-04  0.00E+00  0.00E+00  1.72E-06  4.81E-04  1.20E-02  0.90911
   1672.    5.981  9.00E-08  2.52E-05  1.63E-06  4.55E-04  0.00E+00  0.00E+00  1.72E-06  4.80E-04  1.20E-02  0.91338
   1674.    5.974  8.57E-08  2.40E-05  1.63E-06  4.55E-04  0.00E+00  0.00E+00  1.71E-06  4.79E-04  1.20E-02  0.91748
   1676.    5.967  8.15E-08  2.29E-05  1.62E-06  4.56E-04  0.00E+00  0.00E+00  1.70E-06  4.79E-04  1.20E-02  0.92148
   1678.    5.959  7.74E-08  2.18E-05  1.62E-06  4.56E-04  0.00E+00  0.00E+00  1.70E-06  4.78E-04  1.20E-02  0.92546
   1680.    5.952  7.32E-08  2.07E-05  1.62E-06  4.56E-04  0.00E+00  0.00E+00  1.69E-06  4.77E-04  1.20E-02  0.92951
   1682.    5.945  6.91E-08  1.95E-05  1.61E-06  4.57E-04  0.00E+00  0.00E+00  1.68E-06  4.76E-04  1.20E-02  0.93360
   1684.    5.938  6.50E-08  1.84E-05  1.61E-06  4.57E-04  0.00E+00  0.00E+00  1.68E-06  4.75E-04  1.20E-02  0.93756
   1686.    5.931  6.19E-08  1.76E-05  1.61E-06  4.57E-04  0.00E+00  0.00E+00  1.67E-06  4.74E-04  1.20E-02  0.94037
   1688.    5.924  5.95E-08  1.69E-05  1.60E-06  4.56E-04  0.00E+00  0.00E+00  1.66E-06  4.73E-04  1.20E-02  0.94211
   1690.    5.917  5.72E-08  1.63E-05  1.59E-06  4.55E-04  0.00E+00  0.00E+00  1.65E-06  4.71E-04  1.20E-02  0.94368
   1692.    5.910  5.50E-08  1.57E-05  1.59E-06  4.54E-04  0.00E+00  0.00E+00  1.64E-06  4.70E-04  1.20E-02  0.94525
   1694.    5.903  5.29E-08  1.52E-05  1.58E-06  4.53E-04  0.00E+00  0.00E+00  1.63E-06  4.68E-04  1.20E-02  0.94679
   1696.    5.896  5.09E-08  1.46E-05  1.57E-06  4.52E-04  0.00E+00  0.00E+00  1.62E-06  4.67E-04  1.20E-02  0.94814
   1698.    5.889  4.92E-08  1.42E-05  1.56E-06  4.51E-04  0.00E+00  0.00E+00  1.61E-06  4.65E-04  1.20E-02  0.94934
   1700.    5.882  4.76E-08  1.38E-05  1.56E-06  4.50E-04  0.00E+00  0.00E+00  1.60E-06  4.64E-04  1.20E-02  0.95047
  iv         1705
1                                             RADIANCE(WATTS/CM2-STER-XXX)
0  FREQ   WAVLEN    PATH THERMAL      SURFACE EMISSION    SURFACE REFLECTED     TOTAL RADIANCE   INTEGRAL    TOTAL
  (CM-1) (MICRN)    (CM-1)   (MICRN)    (CM-1)   (MICRN)    (CM-1)   (MICRN)    (CM-1)   (MICRN)    (CM-1)   TRANS

   1702.    5.875  4.63E-08  1.34E-05  1.55E-06  4.49E-04  0.00E+00  0.00E+00  1.59E-06  4.62E-04  1.20E-02  0.95151
   1704.    5.869  4.51E-08  1.31E-05  1.54E-06  4.47E-04  0.00E+00  0.00E+00  1.59E-06  4.61E-04  1.20E-02  0.95252
   1706.    5.862  4.39E-08  1.28E-05  1.53E-06  4.46E-04  0.00E+00  0.00E+00  1.58E-06  4.59E-04  1.20E-02  0.95356
   1708.    5.855  4.27E-08  1.24E-05  1.53E-06  4.45E-04  0.00E+00  0.00E+00  1.57E-06  4.58E-04  1.20E-02  0.95466
   1710.    5.848  4.15E-08  1.21E-05  1.52E-06  4.44E-04  0.00E+00  0.00E+00  1.56E-06  4.56E-04  1.20E-02  0.95572
   1712.    5.841  4.04E-08  1.18E-05  1.51E-06  4.43E-04  0.00E+00  0.00E+00  1.55E-06  4.55E-04  1.20E-02  0.95668
   1714.    5.834  3.93E-08  1.15E-05  1.50E-06  4.41E-04  0.00E+00  0.00E+00  1.54E-06  4.53E-04  1.20E-02  0.95770
   1716.    5.828  3.76E-08  1.11E-05  1.50E-06  4.41E-04  0.00E+00  0.00E+00  1.53E-06  4.52E-04  1.20E-02  0.95946
   1718.    5.821  3.52E-08  1.04E-05  1.49E-06  4.40E-04  0.00E+00  0.00E+00  1.53E-06  4.51E-04  1.21E-02  0.96197
   1720.    5.814  3.29E-08  9.73E-06  1.49E-06  4.40E-04  0.00E+00  0.00E+00  1.52E-06  4.49E-04  1.21E-02  0.96455
   1722.    5.807  3.06E-08  9.07E-06  1.48E-06  4.39E-04  0.00E+00  0.00E+00  1.51E-06  4.48E-04  1.21E-02  0.96708
   1724.    5.800  2.82E-08  8.39E-06  1.48E-06  4.39E-04  0.00E+00  0.00E+00  1.50E-06  4.47E-04  1.21E-02  0.96972
   1726.    5.794  2.49E-08  7.42E-06  1.47E-06  4.39E-04  0.00E+00  0.00E+00  1.50E-06  4.46E-04  1.21E-02  0.97334
   1728.    5.787  2.07E-08  6.17E-06  1.47E-06  4.39E-04  0.00E+00  0.00E+00  1.49E-06  4.45E-04  1.21E-02  0.97796
   1730.    5.780  1.64E-08  4.92E-06  1.47E-06  4.39E-04  0.00E+00  0.00E+00  1.48E-06  4.44E-04  1.21E-02  0.98253
   1732.    5.774  1.25E-08  3.74E-06  1.47E-06  4.40E-04  0.00E+00  0.00E+00  1.48E-06  4.43E-04  1.21E-02  0.98667
   1734.    5.767  8.73E-09  2.63E-06  1.46E-06  4.40E-04  0.00E+00  0.00E+00  1.47E-06  4.42E-04  1.21E-02  0.99050
   1736.    5.760  6.13E-09  1.85E-06  1.46E-06  4.39E-04  0.00E+00  0.00E+00  1.46E-06  4.41E-04  1.21E-02  0.99322
   1738.    5.754  4.64E-09  1.40E-06  1.45E-06  4.38E-04  0.00E+00  0.00E+00  1.46E-06  4.40E-04  1.21E-02  0.99483
   1740.    5.747  3.45E-09  1.04E-06  1.44E-06  4.37E-04  0.00E+00  0.00E+00  1.45E-06  4.38E-04  1.21E-02  0.99613
   1742.    5.741  2.63E-09  7.98E-07  1.44E-06  4.36E-04  0.00E+00  0.00E+00  1.44E-06  4.37E-04  1.21E-02  0.99703
   1744.    5.734  1.98E-09  6.03E-07  1.43E-06  4.34E-04  0.00E+00  0.00E+00  1.43E-06  4.35E-04  1.21E-02  0.99775
   1746.    5.727  1.48E-09  4.53E-07  1.42E-06  4.33E-04  0.00E+00  0.00E+00  1.42E-06  4.33E-04  1.21E-02  0.99830
   1748.    5.721  1.14E-09  3.47E-07  1.41E-06  4.31E-04  0.00E+00  0.00E+00  1.41E-06  4.32E-04  1.21E-02  0.99869
   1750.    5.714  8.45E-10  2.59E-07  1.40E-06  4.30E-04  0.00E+00  0.00E+00  1.40E-06  4.30E-04  1.21E-02  0.99902
   1752.    5.708  6.46E-10  1.98E-07  1.40E-06  4.28E-04  0.00E+00  0.00E+00  1.40E-06  4.28E-04  1.21E-02  0.99924
   1754.    5.701  4.86E-10  1.49E-07  1.39E-06  4.27E-04  0.00E+00  0.00E+00  1.39E-06  4.27E-04  1.21E-02  0.99943
   1756.    5.695  3.27E-10  1.01E-07  1.38E-06  4.25E-04  0.00E+00  0.00E+00  1.38E-06  4.25E-04  1.21E-02  0.99961
   1758.    5.688  1.69E-10  5.24E-08  1.37E-06  4.24E-04  0.00E+00  0.00E+00  1.37E-06  4.24E-04  1.21E-02  0.99980
   1760.    5.682  4.85E-11  1.50E-08  1.36E-06  4.22E-04  0.00E+00  0.00E+00  1.36E-06  4.22E-04  1.21E-02  0.99994
   1762.    5.675  1.42E-11  4.41E-09  1.35E-06  4.20E-04  0.00E+00  0.00E+00  1.35E-06  4.20E-04  1.21E-02  0.99998
   1764.    5.669  1.43E-11  4.46E-09  1.35E-06  4.19E-04  0.00E+00  0.00E+00  1.35E-06  4.19E-04  1.21E-02  0.99998
   1766.    5.663  1.44E-11  4.51E-09  1.34E-06  4.17E-04  0.00E+00  0.00E+00  1.34E-06  4.17E-04  1.21E-02  0.99998
   1768.    5.656  1.46E-11  4.55E-09  1.33E-06  4.15E-04  0.00E+00  0.00E+00  1.33E-06  4.15E-04  1.21E-02  0.99998
   1770.    5.650  1.47E-11  4.60E-09  1.32E-06  4.14E-04  0.00E+00  0.00E+00  1.32E-06  4.14E-04  1.21E-02  0.99998
   1772.    5.643  1.48E-11  4.66E-09  1.31E-06  4.12E-04  0.00E+00  0.00E+00  1.31E-06  4.12E-04  1.21E-02  0.99998
   1774.    5.637  1.50E-11  4.72E-09  1.30E-06  4.10E-04  0.00E+00  0.00E+00  1.30E-06  4.10E-04  1.21E-02  0.99998
   1776.    5.631  1.51E-11  4.78E-09  1.30E-06  4.09E-04  0.00E+00  0.00E+00  1.30E-06  4.09E-04  1.21E-02  0.99998
   1778.    5.624  1.53E-11  4.82E-09  1.29E-06  4.07E-04  0.00E+00  0.00E+00  1.29E-06  4.07E-04  1.21E-02  0.99998
   1780.    5.618  1.54E-11  4.87E-09  1.28E-06  4.06E-04  0.00E+00  0.00E+00  1.28E-06  4.06E-04  1.21E-02  0.99998
   1782.    5.612  1.55E-11  4.93E-09  1.27E-06  4.04E-04  0.00E+00  0.00E+00  1.27E-06  4.04E-04  1.21E-02  0.99998
   1784.    5.605  1.57E-11  5.00E-09  1.26E-06  4.02E-04  0.00E+00  0.00E+00  1.26E-06  4.02E-04  1.21E-02  0.99998
   1786.    5.599  1.59E-11  5.07E-09  1.26E-06  4.01E-04  0.00E+00  0.00E+00  1.26E-06  4.01E-04  1.21E-02  0.99997
   1788.    5.593  1.61E-11  5.13E-09  1.25E-06  3.99E-04  0.00E+00  0.00E+00  1.25E-06  3.99E-04  1.21E-02  0.99997
   1790.    5.587  1.62E-11  5.19E-09  1.24E-06  3.98E-04  0.00E+00  0.00E+00  1.24E-06  3.98E-04  1.22E-02  0.99997
   1792.    5.580  1.64E-11  5.25E-09  1.23E-06  3.96E-04  0.00E+00  0.00E+00  1.23E-06  3.96E-04  1.22E-02  0.99997
   1794.    5.574  1.65E-11  5.32E-09  1.23E-06  3.94E-04  0.00E+00  0.00E+00  1.23E-06  3.94E-04  1.22E-02  0.99997
   1796.    5.568  1.67E-11  5.39E-09  1.22E-06  3.93E-04  0.00E+00  0.00E+00  1.22E-06  3.93E-04  1.22E-02  0.99997
   1798.    5.562  1.69E-11  5.46E-09  1.21E-06  3.91E-04  0.00E+00  0.00E+00  1.21E-06  3.91E-04  1.22E-02  0.99997
   1800.    5.556  1.71E-11  5.53E-09  1.20E-06  3.90E-04  0.00E+00  0.00E+00  1.20E-06  3.90E-04  1.22E-02  0.99997
  iv         1805
1                                             RADIANCE(WATTS/CM2-STER-XXX)
0  FREQ   WAVLEN    PATH THERMAL      SURFACE EMISSION    SURFACE REFLECTED     TOTAL RADIANCE   INTEGRAL    TOTAL
  (CM-1) (MICRN)    (CM-1)   (MICRN)    (CM-1)   (MICRN)    (CM-1)   (MICRN)    (CM-1)   (MICRN)    (CM-1)   TRANS

   1802.    5.549  1.73E-11  5.61E-09  1.20E-06  3.88E-04  0.00E+00  0.00E+00  1.20E-06  3.88E-04  1.22E-02  0.99997
   1804.    5.543  1.76E-11  5.72E-09  1.19E-06  3.86E-04  0.00E+00  0.00E+00  1.19E-06  3.86E-04  1.22E-02  0.99997
   1806.    5.537  2.54E-11  8.27E-09  1.18E-06  3.85E-04  0.00E+00  0.00E+00  1.18E-06  3.85E-04  1.22E-02  0.99996
   1808.    5.531  4.22E-11  1.38E-08  1.17E-06  3.83E-04  0.00E+00  0.00E+00  1.17E-06  3.83E-04  1.22E-02  0.99994
   1810.    5.525  6.73E-11  2.20E-08  1.17E-06  3.82E-04  0.00E+00  0.00E+00  1.17E-06  3.82E-04  1.22E-02  0.99991
   1812.    5.519  9.21E-11  3.02E-08  1.16E-06  3.80E-04  0.00E+00  0.00E+00  1.16E-06  3.80E-04  1.22E-02  0.99987
   1814.    5.513  1.05E-10  3.46E-08  1.15E-06  3.79E-04  0.00E+00  0.00E+00  1.15E-06  3.79E-04  1.22E-02  0.99985
   1816.    5.507  1.36E-10  4.49E-08  1.14E-06  3.77E-04  0.00E+00  0.00E+00  1.14E-06  3.77E-04  1.22E-02  0.99981
   1818.    5.501  1.49E-10  4.93E-08  1.14E-06  3.76E-04  0.00E+00  0.00E+00  1.14E-06  3.76E-04  1.22E-02  0.99979
   1820.    5.495  1.73E-10  5.72E-08  1.13E-06  3.74E-04  0.00E+00  0.00E+00  1.13E-06  3.74E-04  1.22E-02  0.99975
   1822.    5.488  2.06E-10  6.83E-08  1.12E-06  3.72E-04  0.00E+00  0.00E+00  1.12E-06  3.72E-04  1.22E-02  0.99970
   1824.    5.482  2.06E-10  6.86E-08  1.11E-06  3.71E-04  0.00E+00  0.00E+00  1.11E-06  3.71E-04  1.22E-02  0.99970
   1826.    5.476  2.29E-10  7.63E-08  1.11E-06  3.69E-04  0.00E+00  0.00E+00  1.11E-06  3.69E-04  1.22E-02  0.99966
   1828.    5.470  2.40E-10  8.02E-08  1.10E-06  3.68E-04  0.00E+00  0.00E+00  1.10E-06  3.68E-04  1.22E-02  0.99964
   1830.    5.464  2.47E-10  8.26E-08  1.09E-06  3.66E-04  0.00E+00  0.00E+00  1.09E-06  3.66E-04  1.22E-02  0.99963
   1832.    5.459  2.37E-10  7.94E-08  1.09E-06  3.65E-04  0.00E+00  0.00E+00  1.09E-06  3.65E-04  1.22E-02  0.99964
   1834.    5.453  2.60E-10  8.74E-08  1.08E-06  3.63E-04  0.00E+00  0.00E+00  1.08E-06  3.63E-04  1.22E-02  0.99961
   1836.    5.447  2.79E-10  9.39E-08  1.07E-06  3.62E-04  0.00E+00  0.00E+00  1.07E-06  3.62E-04  1.22E-02  0.99958
   1838.    5.441  3.23E-10  1.09E-07  1.07E-06  3.60E-04  0.00E+00  0.00E+00  1.07E-06  3.60E-04  1.22E-02  0.99951
   1840.    5.435  3.92E-10  1.33E-07  1.06E-06  3.59E-04  0.00E+00  0.00E+00  1.06E-06  3.59E-04  1.22E-02  0.99940
   1842.    5.429  4.77E-10  1.62E-07  1.05E-06  3.57E-04  0.00E+00  0.00E+00  1.05E-06  3.57E-04  1.22E-02  0.99925
   1844.    5.423  6.35E-10  2.16E-07  1.05E-06  3.56E-04  0.00E+00  0.00E+00  1.05E-06  3.56E-04  1.22E-02  0.99898
   1846.    5.417  8.71E-10  2.97E-07  1.04E-06  3.54E-04  0.00E+00  0.00E+00  1.04E-06  3.54E-04  1.22E-02  0.99857
   1848.    5.411  1.14E-09  3.90E-07  1.03E-06  3.52E-04  0.00E+00  0.00E+00  1.03E-06  3.53E-04  1.22E-02  0.99810
   1850.    5.405  1.46E-09  5.00E-07  1.02E-06  3.51E-04  0.00E+00  0.00E+00  1.03E-06  3.51E-04  1.22E-02  0.99752
   1852.    5.400  1.82E-09  6.23E-07  1.02E-06  3.49E-04  0.00E+00  0.00E+00  1.02E-06  3.50E-04  1.22E-02  0.99686
   1854.    5.394  2.19E-09  7.54E-07  1.01E-06  3.47E-04  0.00E+00  0.00E+00  1.01E-06  3.48E-04  1.22E-02  0.99613
   1856.    5.388  2.53E-09  8.72E-07  1.00E-06  3.45E-04  0.00E+00  0.00E+00  1.01E-06  3.46E-04  1.22E-02  0.99544
   1858.    5.382  2.82E-09  9.72E-07  9.96E-07  3.44E-04  0.00E+00  0.00E+00  9.99E-07  3.45E-04  1.22E-02  0.99482
   1860.    5.376  3.06E-09  1.06E-06  9.89E-07  3.42E-04  0.00E+00  0.00E+00  9.92E-07  3.43E-04  1.22E-02  0.99426
   1862.    5.371  3.19E-09  1.11E-06  9.82E-07  3.41E-04  0.00E+00  0.00E+00  9.86E-07  3.42E-04  1.22E-02  0.99390
   1864.    5.365  3.27E-09  1.14E-06  9.76E-07  3.39E-04  0.00E+00  0.00E+00  9.79E-07  3.40E-04  1.22E-02  0.99361
   1866.    5.359  3.23E-09  1.12E-06  9.70E-07  3.38E-04  0.00E+00  0.00E+00  9.73E-07  3.39E-04  1.22E-02  0.99358
   1868.    5.353  3.06E-09  1.07E-06  9.64E-07  3.36E-04  0.00E+00  0.00E+00  9.67E-07  3.37E-04  1.22E-02  0.99381
   1870.    5.348  2.93E-09  1.03E-06  9.58E-07  3.35E-04  0.00E+00  0.00E+00  9.61E-07  3.36E-04  1.22E-02  0.99397
   1872.    5.342  2.83E-09  9.91E-07  9.52E-07  3.34E-04  0.00E+00  0.00E+00  9.55E-07  3.35E-04  1.22E-02  0.99410
   1874.    5.336  2.77E-09  9.72E-07  9.46E-07  3.32E-04  0.00E+00  0.00E+00  9.48E-07  3.33E-04  1.22E-02  0.99416
   1876.    5.330  2.96E-09  1.04E-06  9.39E-07  3.31E-04  0.00E+00  0.00E+00  9.42E-07  3.32E-04  1.22E-02  0.99368
   1878.    5.325  3.22E-09  1.14E-06  9.33E-07  3.29E-04  0.00E+00  0.00E+00  9.36E-07  3.30E-04  1.22E-02  0.99311
   1880.    5.319  4.90E-09  1.73E-06  9.23E-07  3.26E-04  0.00E+00  0.00E+00  9.28E-07  3.28E-04  1.22E-02  0.98961
   1882.    5.313  5.42E-09  1.92E-06  9.17E-07  3.25E-04  0.00E+00  0.00E+00  9.22E-07  3.27E-04  1.22E-02  0.98859
   1884.    5.308  5.66E-09  2.01E-06  9.10E-07  3.23E-04  0.00E+00  0.00E+00  9.16E-07  3.25E-04  1.23E-02  0.98827
   1886.    5.302  7.83E-09  2.79E-06  9.01E-07  3.20E-04  0.00E+00  0.00E+00  9.09E-07  3.23E-04  1.23E-02  0.98408
   1888.    5.297  9.84E-09  3.51E-06  8.91E-07  3.18E-04  0.00E+00  0.00E+00  9.01E-07  3.21E-04  1.23E-02  0.97995
   1890.    5.291  1.28E-08  4.57E-06  8.80E-07  3.14E-04  0.00E+00  0.00E+00  8.93E-07  3.19E-04  1.23E-02  0.97374
   1892.    5.285  1.65E-08  5.90E-06  8.67E-07  3.10E-04  0.00E+00  0.00E+00  8.83E-07  3.16E-04  1.23E-02  0.96561
   1894.    5.280  2.17E-08  7.78E-06  8.51E-07  3.05E-04  0.00E+00  0.00E+00  8.72E-07  3.13E-04  1.23E-02  0.95337
   1896.    5.274  2.97E-08  1.07E-05  8.27E-07  2.97E-04  0.00E+00  0.00E+00  8.57E-07  3.08E-04  1.23E-02  0.93337
   1898.    5.269  3.67E-08  1.32E-05  8.06E-07  2.90E-04  0.00E+00  0.00E+00  8.42E-07  3.03E-04  1.23E-02  0.91463
   1900.    5.263  4.21E-08  1.52E-05  7.86E-07  2.84E-04  0.00E+00  0.00E+00  8.28E-07  2.99E-04  1.23E-02  0.89793
  iv         1905
1                                             RADIANCE(WATTS/CM2-STER-XXX)
0  FREQ   WAVLEN    PATH THERMAL      SURFACE EMISSION    SURFACE REFLECTED     TOTAL RADIANCE   INTEGRAL    TOTAL
  (CM-1) (MICRN)    (CM-1)   (MICRN)    (CM-1)   (MICRN)    (CM-1)   (MICRN)    (CM-1)   (MICRN)    (CM-1)   TRANS

   1902.    5.258  5.04E-08  1.82E-05  7.58E-07  2.74E-04  0.00E+00  0.00E+00  8.08E-07  2.92E-04  1.23E-02  0.87194
   1904.    5.252  5.39E-08  1.96E-05  7.41E-07  2.69E-04  0.00E+00  0.00E+00  7.95E-07  2.88E-04  1.23E-02  0.85752
   1906.    5.247  5.70E-08  2.07E-05  7.24E-07  2.63E-04  0.00E+00  0.00E+00  7.81E-07  2.84E-04  1.23E-02  0.84350
   1908.    5.241  5.96E-08  2.17E-05  7.07E-07  2.57E-04  0.00E+00  0.00E+00  7.67E-07  2.79E-04  1.23E-02  0.82923
   1910.    5.236  6.06E-08  2.21E-05  6.95E-07  2.53E-04  0.00E+00  0.00E+00  7.55E-07  2.76E-04  1.23E-02  0.81985
   1912.    5.230  6.05E-08  2.21E-05  6.86E-07  2.51E-04  0.00E+00  0.00E+00  7.46E-07  2.73E-04  1.23E-02  0.81432
   1914.    5.225  5.90E-08  2.16E-05  6.81E-07  2.49E-04  0.00E+00  0.00E+00  7.40E-07  2.71E-04  1.23E-02  0.81367
   1916.    5.219  6.24E-08  2.29E-05  6.64E-07  2.44E-04  0.00E+00  0.00E+00  7.27E-07  2.67E-04  1.23E-02  0.79956
   1918.    5.214  7.50E-08  2.76E-05  6.30E-07  2.32E-04  0.00E+00  0.00E+00  7.05E-07  2.59E-04  1.23E-02  0.76293
   1920.    5.208  6.36E-08  2.34E-05  6.51E-07  2.40E-04  0.00E+00  0.00E+00  7.14E-07  2.63E-04  1.23E-02  0.79338
   1922.    5.203  4.66E-08  1.72E-05  6.86E-07  2.53E-04  0.00E+00  0.00E+00  7.32E-07  2.71E-04  1.23E-02  0.84162
   1924.    5.198  3.75E-08  1.39E-05  7.05E-07  2.61E-04  0.00E+00  0.00E+00  7.42E-07  2.75E-04  1.23E-02  0.87031
   1926.    5.192  2.92E-08  1.08E-05  7.23E-07  2.68E-04  0.00E+00  0.00E+00  7.52E-07  2.79E-04  1.23E-02  0.89874
   1928.    5.187  1.93E-08  7.17E-06  7.46E-07  2.77E-04  0.00E+00  0.00E+00  7.65E-07  2.85E-04  1.23E-02  0.93357
   1930.    5.181  1.81E-08  6.74E-06  7.47E-07  2.78E-04  0.00E+00  0.00E+00  7.65E-07  2.85E-04  1.23E-02  0.94101
   1932.    5.176  7.03E-08  2.62E-05  5.49E-07  2.05E-04  0.00E+00  0.00E+00  6.19E-07  2.31E-04  1.23E-02  0.69508
   1934.    5.171  9.40E-08  3.52E-05  4.86E-07  1.82E-04  0.00E+00  0.00E+00  5.80E-07  2.17E-04  1.23E-02  0.62068
   1936.    5.165  3.79E-08  1.42E-05  6.88E-07  2.58E-04  0.00E+00  0.00E+00  7.26E-07  2.72E-04  1.23E-02  0.88402
   1938.    5.160  9.73E-09  3.65E-06  7.51E-07  2.82E-04  0.00E+00  0.00E+00  7.60E-07  2.86E-04  1.23E-02  0.97012
   1940.    5.155  5.48E-09  2.06E-06  7.54E-07  2.84E-04  0.00E+00  0.00E+00  7.60E-07  2.86E-04  1.23E-02  0.98145
   1942.    5.149  3.23E-09  1.22E-06  7.56E-07  2.85E-04  0.00E+00  0.00E+00  7.59E-07  2.86E-04  1.23E-02  0.98944
   1944.    5.144  1.55E-09  5.86E-07  7.55E-07  2.85E-04  0.00E+00  0.00E+00  7.57E-07  2.86E-04  1.23E-02  0.99553
   1946.    5.139  1.09E-09  4.12E-07  7.52E-07  2.85E-04  0.00E+00  0.00E+00  7.53E-07  2.85E-04  1.23E-02  0.99710
   1948.    5.133  1.53E-09  5.80E-07  7.46E-07  2.83E-04  0.00E+00  0.00E+00  7.47E-07  2.84E-04  1.23E-02  0.99552
   1950.    5.128  3.36E-09  1.28E-06  7.36E-07  2.80E-04  0.00E+00  0.00E+00  7.40E-07  2.81E-04  1.23E-02  0.98944
   1952.    5.123  5.59E-09  2.13E-06  7.26E-07  2.77E-04  0.00E+00  0.00E+00  7.32E-07  2.79E-04  1.23E-02  0.98203
   1954.    5.118  5.95E-09  2.27E-06  7.20E-07  2.75E-04  0.00E+00  0.00E+00  7.26E-07  2.77E-04  1.23E-02  0.98063
   1956.    5.112  8.04E-09  3.07E-06  7.10E-07  2.72E-04  0.00E+00  0.00E+00  7.18E-07  2.75E-04  1.23E-02  0.97359
   1958.    5.107  9.03E-09  3.46E-06  7.04E-07  2.70E-04  0.00E+00  0.00E+00  7.13E-07  2.73E-04  1.23E-02  0.97078
   1960.    5.102  9.32E-09  3.58E-06  6.99E-07  2.68E-04  0.00E+00  0.00E+00  7.08E-07  2.72E-04  1.23E-02  0.97019
   1962.    5.097  7.91E-09  3.05E-06  6.98E-07  2.69E-04  0.00E+00  0.00E+00  7.06E-07  2.72E-04  1.23E-02  0.97531
   1964.    5.092  8.81E-09  3.40E-06  6.92E-07  2.67E-04  0.00E+00  0.00E+00  7.00E-07  2.70E-04  1.23E-02  0.97290
   1966.    5.086  6.98E-09  2.70E-06  6.91E-07  2.67E-04  0.00E+00  0.00E+00  6.98E-07  2.70E-04  1.23E-02  0.97905
   1968.    5.081  5.76E-09  2.23E-06  6.90E-07  2.67E-04  0.00E+00  0.00E+00  6.95E-07  2.69E-04  1.23E-02  0.98312
   1970.    5.076  5.76E-09  2.24E-06  6.85E-07  2.66E-04  0.00E+00  0.00E+00  6.91E-07  2.68E-04  1.23E-02  0.98332
   1972.    5.071  4.69E-09  1.83E-06  6.83E-07  2.66E-04  0.00E+00  0.00E+00  6.88E-07  2.68E-04  1.23E-02  0.98673
   1974.    5.066  3.27E-09  1.27E-06  6.82E-07  2.66E-04  0.00E+00  0.00E+00  6.85E-07  2.67E-04  1.23E-02  0.99089
   1976.    5.061  2.38E-09  9.28E-07  6.79E-07  2.65E-04  0.00E+00  0.00E+00  6.81E-07  2.66E-04  1.23E-02  0.99352
   1978.    5.056  2.20E-09  8.59E-07  6.75E-07  2.64E-04  0.00E+00  0.00E+00  6.77E-07  2.65E-04  1.23E-02  0.99401
   1980.    5.051  1.61E-09  6.30E-07  6.72E-07  2.63E-04  0.00E+00  0.00E+00  6.73E-07  2.64E-04  1.23E-02  0.99561
   1982.    5.045  1.37E-09  5.38E-07  6.68E-07  2.62E-04  0.00E+00  0.00E+00  6.69E-07  2.63E-04  1.23E-02  0.99626
   1984.    5.040  1.11E-09  4.35E-07  6.64E-07  2.61E-04  0.00E+00  0.00E+00  6.65E-07  2.62E-04  1.23E-02  0.99690
   1986.    5.035  8.69E-10  3.43E-07  6.60E-07  2.60E-04  0.00E+00  0.00E+00  6.61E-07  2.61E-04  1.23E-02  0.99754
   1988.    5.030  8.05E-10  3.18E-07  6.55E-07  2.59E-04  0.00E+00  0.00E+00  6.56E-07  2.59E-04  1.23E-02  0.99768
   1990.    5.025  7.93E-10  3.14E-07  6.51E-07  2.58E-04  0.00E+00  0.00E+00  6.52E-07  2.58E-04  1.23E-02  0.99765
   1992.    5.020  7.43E-10  2.95E-07  6.47E-07  2.57E-04  0.00E+00  0.00E+00  6.48E-07  2.57E-04  1.23E-02  0.99778
   1994.    5.015  8.35E-10  3.32E-07  6.42E-07  2.55E-04  0.00E+00  0.00E+00  6.43E-07  2.56E-04  1.23E-02  0.99749
   1996.    5.010  1.09E-09  4.35E-07  6.38E-07  2.54E-04  0.00E+00  0.00E+00  6.39E-07  2.55E-04  1.23E-02  0.99666
   1998.    5.005  1.26E-09  5.03E-07  6.33E-07  2.53E-04  0.00E+00  0.00E+00  6.34E-07  2.53E-04  1.23E-02  0.99607
   2000.    5.000  1.64E-09  6.56E-07  6.28E-07  2.51E-04  0.00E+00  0.00E+00  6.30E-07  2.52E-04  1.23E-02  0.99477
  iv         2005
1                                             RADIANCE(WATTS/CM2-STER-XXX)
0  FREQ   WAVLEN    PATH THERMAL      SURFACE EMISSION    SURFACE REFLECTED     TOTAL RADIANCE   INTEGRAL    TOTAL
  (CM-1) (MICRN)    (CM-1)   (MICRN)    (CM-1)   (MICRN)    (CM-1)   (MICRN)    (CM-1)   (MICRN)    (CM-1)   TRANS

   2002.    4.995  2.62E-09  1.05E-06  6.22E-07  2.49E-04  0.00E+00  0.00E+00  6.24E-07  2.50E-04  1.23E-02  0.99138
   2004.    4.990  2.99E-09  1.20E-06  6.17E-07  2.48E-04  0.00E+00  0.00E+00  6.20E-07  2.49E-04  1.23E-02  0.98996
   2006.    4.985  3.49E-09  1.41E-06  6.11E-07  2.46E-04  0.00E+00  0.00E+00  6.15E-07  2.47E-04  1.23E-02  0.98776
   2008.    4.980  4.24E-09  1.71E-06  6.05E-07  2.44E-04  0.00E+00  0.00E+00  6.10E-07  2.46E-04  1.23E-02  0.98454
   2010.    4.975  5.14E-09  2.07E-06  5.99E-07  2.42E-04  0.00E+00  0.00E+00  6.04E-07  2.44E-04  1.23E-02  0.98064
   2012.    4.970  5.13E-09  2.08E-06  5.95E-07  2.41E-04  0.00E+00  0.00E+00  6.00E-07  2.43E-04  1.23E-02  0.98022
   2014.    4.965  6.64E-09  2.69E-06  5.86E-07  2.38E-04  0.00E+00  0.00E+00  5.93E-07  2.41E-04  1.23E-02  0.97337
   2016.    4.960  7.49E-09  3.04E-06  5.80E-07  2.36E-04  0.00E+00  0.00E+00  5.88E-07  2.39E-04  1.23E-02  0.96927
   2018.    4.955  8.20E-09  3.34E-06  5.74E-07  2.34E-04  0.00E+00  0.00E+00  5.82E-07  2.37E-04  1.23E-02  0.96564
   2020.    4.950  8.85E-09  3.61E-06  5.68E-07  2.32E-04  0.00E+00  0.00E+00  5.77E-07  2.35E-04  1.23E-02  0.96239
   2022.    4.946  8.37E-09  3.42E-06  5.66E-07  2.31E-04  0.00E+00  0.00E+00  5.74E-07  2.35E-04  1.23E-02  0.96490
   2024.    4.941  9.26E-09  3.79E-06  5.61E-07  2.30E-04  0.00E+00  0.00E+00  5.70E-07  2.33E-04  1.24E-02  0.96206
   2026.    4.936  1.11E-08  4.58E-06  5.52E-07  2.27E-04  0.00E+00  0.00E+00  5.63E-07  2.31E-04  1.24E-02  0.95440
   2028.    4.931  1.26E-08  5.20E-06  5.46E-07  2.25E-04  0.00E+00  0.00E+00  5.59E-07  2.30E-04  1.24E-02  0.95024
   2030.    4.926  1.53E-08  6.31E-06  5.38E-07  2.22E-04  0.00E+00  0.00E+00  5.54E-07  2.28E-04  1.24E-02  0.94278
   2032.    4.921  1.90E-08  7.83E-06  5.28E-07  2.18E-04  0.00E+00  0.00E+00  5.47E-07  2.26E-04  1.24E-02  0.93163
   2034.    4.916  2.50E-08  1.03E-05  5.13E-07  2.12E-04  0.00E+00  0.00E+00  5.38E-07  2.23E-04  1.24E-02  0.91066
   2036.    4.912  4.29E-08  1.78E-05  4.57E-07  1.90E-04  0.00E+00  0.00E+00  5.00E-07  2.07E-04  1.24E-02  0.81728
   2038.    4.907  5.76E-08  2.39E-05  4.17E-07  1.73E-04  0.00E+00  0.00E+00  4.74E-07  1.97E-04  1.24E-02  0.74999
   2040.    4.902  5.35E-08  2.23E-05  4.31E-07  1.79E-04  0.00E+00  0.00E+00  4.84E-07  2.01E-04  1.24E-02  0.78010
   2042.    4.897  5.76E-08  2.40E-05  4.12E-07  1.72E-04  0.00E+00  0.00E+00  4.70E-07  1.96E-04  1.24E-02  0.75109
   2044.    4.892  6.38E-08  2.67E-05  3.87E-07  1.62E-04  0.00E+00  0.00E+00  4.51E-07  1.88E-04  1.24E-02  0.71047
   2046.    4.888  6.13E-08  2.57E-05  3.87E-07  1.62E-04  0.00E+00  0.00E+00  4.48E-07  1.88E-04  1.24E-02  0.71547
   2048.    4.883  7.43E-08  3.12E-05  3.35E-07  1.41E-04  0.00E+00  0.00E+00  4.10E-07  1.72E-04  1.24E-02  0.62393
   2050.    4.878  8.71E-08  3.66E-05  2.86E-07  1.20E-04  0.00E+00  0.00E+00  3.73E-07  1.57E-04  1.24E-02  0.53592
   2052.    4.873  9.27E-08  3.90E-05  2.60E-07  1.09E-04  0.00E+00  0.00E+00  3.52E-07  1.48E-04  1.24E-02  0.48967
   2054.    4.869  9.51E-08  4.01E-05  2.49E-07  1.05E-04  0.00E+00  0.00E+00  3.44E-07  1.45E-04  1.24E-02  0.47339
   2056.    4.864  9.27E-08  3.92E-05  2.50E-07  1.06E-04  0.00E+00  0.00E+00  3.43E-07  1.45E-04  1.24E-02  0.47895
   2058.    4.859  9.06E-08  3.84E-05  2.48E-07  1.05E-04  0.00E+00  0.00E+00  3.38E-07  1.43E-04  1.24E-02  0.47697
   2060.    4.854  9.12E-08  3.87E-05  2.36E-07  1.00E-04  0.00E+00  0.00E+00  3.28E-07  1.39E-04  1.24E-02  0.45799
   2062.    4.850  9.09E-08  3.87E-05  2.24E-07  9.52E-05  0.00E+00  0.00E+00  3.15E-07  1.34E-04  1.24E-02  0.43703
   2064.    4.845  8.97E-08  3.82E-05  2.18E-07  9.27E-05  0.00E+00  0.00E+00  3.07E-07  1.31E-04  1.24E-02  0.42757
   2066.    4.840  8.25E-08  3.52E-05  2.52E-07  1.08E-04  0.00E+00  0.00E+00  3.35E-07  1.43E-04  1.24E-02  0.49940
   2068.    4.836  7.95E-08  3.40E-05  2.54E-07  1.09E-04  0.00E+00  0.00E+00  3.34E-07  1.43E-04  1.24E-02  0.50647
   2070.    4.831  7.91E-08  3.39E-05  2.62E-07  1.12E-04  0.00E+00  0.00E+00  3.41E-07  1.46E-04  1.24E-02  0.52462
   2072.    4.826  7.25E-08  3.11E-05  2.86E-07  1.23E-04  0.00E+00  0.00E+00  3.59E-07  1.54E-04  1.24E-02  0.57788
   2074.    4.822  7.39E-08  3.18E-05  2.98E-07  1.28E-04  0.00E+00  0.00E+00  3.72E-07  1.60E-04  1.24E-02  0.60504
   2076.    4.817  7.35E-08  3.17E-05  1.70E-07  7.31E-05  0.00E+00  0.00E+00  2.43E-07  1.05E-04  1.24E-02  0.34632
   2078.    4.812  7.02E-08  3.03E-05  7.34E-08  3.17E-05  0.00E+00  0.00E+00  1.44E-07  6.20E-05  1.24E-02  0.15144
   2080.    4.808  8.59E-08  3.71E-05  2.00E-07  8.64E-05  0.00E+00  0.00E+00  2.85E-07  1.24E-04  1.24E-02  0.41481
   2082.    4.803  6.66E-08  2.89E-05  2.95E-07  1.28E-04  0.00E+00  0.00E+00  3.61E-07  1.57E-04  1.24E-02  0.61625
   2084.    4.798  5.31E-08  2.30E-05  3.27E-07  1.42E-04  0.00E+00  0.00E+00  3.80E-07  1.65E-04  1.24E-02  0.68805
   2086.    4.794  4.37E-08  1.90E-05  3.54E-07  1.54E-04  0.00E+00  0.00E+00  3.98E-07  1.73E-04  1.24E-02  0.75064
   2088.    4.789  3.58E-08  1.56E-05  3.76E-07  1.64E-04  0.00E+00  0.00E+00  4.12E-07  1.79E-04  1.24E-02  0.80110
   2090.    4.785  3.03E-08  1.32E-05  3.88E-07  1.69E-04  0.00E+00  0.00E+00  4.18E-07  1.83E-04  1.24E-02  0.83255
   2092.    4.780  5.49E-08  2.40E-05  3.20E-07  1.40E-04  0.00E+00  0.00E+00  3.75E-07  1.64E-04  1.24E-02  0.69003
   2094.    4.776  8.23E-08  3.61E-05  2.51E-07  1.10E-04  0.00E+00  0.00E+00  3.34E-07  1.46E-04  1.24E-02  0.54748
   2096.    4.771  3.81E-08  1.68E-05  3.72E-07  1.64E-04  0.00E+00  0.00E+00  4.11E-07  1.80E-04  1.24E-02  0.81657
   2098.    4.766  1.93E-08  8.49E-06  4.15E-07  1.83E-04  0.00E+00  0.00E+00  4.34E-07  1.91E-04  1.24E-02  0.91561
   2100.    4.762  2.17E-08  9.58E-06  4.06E-07  1.79E-04  0.00E+00  0.00E+00  4.28E-07  1.89E-04  1.24E-02  0.90207
  iv         2105
1                                             RADIANCE(WATTS/CM2-STER-XXX)
0  FREQ   WAVLEN    PATH THERMAL      SURFACE EMISSION    SURFACE REFLECTED     TOTAL RADIANCE   INTEGRAL    TOTAL
  (CM-1) (MICRN)    (CM-1)   (MICRN)    (CM-1)   (MICRN)    (CM-1)   (MICRN)    (CM-1)   (MICRN)    (CM-1)   TRANS

   2102.    4.757  2.34E-08  1.03E-05  3.99E-07  1.76E-04  0.00E+00  0.00E+00  4.22E-07  1.86E-04  1.24E-02  0.89161
   2104.    4.753  2.24E-08  9.93E-06  3.97E-07  1.76E-04  0.00E+00  0.00E+00  4.19E-07  1.86E-04  1.24E-02  0.89302
   2106.    4.748  3.02E-08  1.34E-05  3.79E-07  1.68E-04  0.00E+00  0.00E+00  4.09E-07  1.81E-04  1.24E-02  0.85817
   2108.    4.744  3.44E-08  1.53E-05  3.67E-07  1.63E-04  0.00E+00  0.00E+00  4.01E-07  1.78E-04  1.24E-02  0.83774
   2110.    4.739  2.80E-08  1.25E-05  3.76E-07  1.67E-04  0.00E+00  0.00E+00  4.04E-07  1.80E-04  1.24E-02  0.86318
   2112.    4.735  3.03E-08  1.35E-05  3.68E-07  1.64E-04  0.00E+00  0.00E+00  3.98E-07  1.78E-04  1.24E-02  0.85156
   2114.    4.730  3.00E-08  1.34E-05  3.66E-07  1.64E-04  0.00E+00  0.00E+00  3.96E-07  1.77E-04  1.24E-02  0.85376
   2116.    4.726  2.50E-08  1.12E-05  3.73E-07  1.67E-04  0.00E+00  0.00E+00  3.98E-07  1.78E-04  1.24E-02  0.87454
   2118.    4.721  2.06E-08  9.24E-06  3.80E-07  1.70E-04  0.00E+00  0.00E+00  4.00E-07  1.80E-04  1.24E-02  0.89711
   2120.    4.717  2.09E-08  9.39E-06  3.76E-07  1.69E-04  0.00E+00  0.00E+00  3.97E-07  1.78E-04  1.24E-02  0.89499
   2122.    4.713  1.71E-08  7.72E-06  3.81E-07  1.72E-04  0.00E+00  0.00E+00  3.99E-07  1.79E-04  1.24E-02  0.91344
   2124.    4.708  1.37E-08  6.20E-06  3.86E-07  1.74E-04  0.00E+00  0.00E+00  4.00E-07  1.80E-04  1.24E-02  0.93053
   2126.    4.704  1.13E-08  5.10E-06  3.89E-07  1.76E-04  0.00E+00  0.00E+00  4.00E-07  1.81E-04  1.24E-02  0.94446
   2128.    4.699  3.53E-08  1.60E-05  3.29E-07  1.49E-04  0.00E+00  0.00E+00  3.65E-07  1.65E-04  1.24E-02  0.80476
   2130.    4.695  4.87E-08  2.21E-05  2.91E-07  1.32E-04  0.00E+00  0.00E+00  3.39E-07  1.54E-04  1.24E-02  0.71562
   2132.    4.690  1.49E-08  6.77E-06  3.70E-07  1.68E-04  0.00E+00  0.00E+00  3.85E-07  1.75E-04  1.24E-02  0.91661
   2134.    4.686  6.51E-09  2.97E-06  3.88E-07  1.77E-04  0.00E+00  0.00E+00  3.94E-07  1.80E-04  1.24E-02  0.96794
   2136.    4.682  6.59E-09  3.00E-06  3.85E-07  1.76E-04  0.00E+00  0.00E+00  3.92E-07  1.79E-04  1.24E-02  0.96743
   2138.    4.677  7.04E-09  3.22E-06  3.81E-07  1.74E-04  0.00E+00  0.00E+00  3.88E-07  1.78E-04  1.24E-02  0.96486
   2140.    4.673  6.98E-09  3.19E-06  3.79E-07  1.73E-04  0.00E+00  0.00E+00  3.86E-07  1.77E-04  1.24E-02  0.96515
   2142.    4.669  7.02E-09  3.22E-06  3.76E-07  1.73E-04  0.00E+00  0.00E+00  3.83E-07  1.76E-04  1.24E-02  0.96492
   2144.    4.664  7.16E-09  3.29E-06  3.73E-07  1.72E-04  0.00E+00  0.00E+00  3.80E-07  1.75E-04  1.24E-02  0.96415
   2146.    4.660  7.32E-09  3.37E-06  3.70E-07  1.71E-04  0.00E+00  0.00E+00  3.78E-07  1.74E-04  1.24E-02  0.96308
   2148.    4.655  7.98E-09  3.68E-06  3.66E-07  1.69E-04  0.00E+00  0.00E+00  3.74E-07  1.73E-04  1.24E-02  0.95955
   2150.    4.651  8.24E-09  3.81E-06  3.63E-07  1.68E-04  0.00E+00  0.00E+00  3.71E-07  1.72E-04  1.24E-02  0.95765
   2152.    4.647  8.75E-09  4.05E-06  3.59E-07  1.66E-04  0.00E+00  0.00E+00  3.68E-07  1.71E-04  1.24E-02  0.95446
   2154.    4.643  9.39E-09  4.36E-06  3.56E-07  1.65E-04  0.00E+00  0.00E+00  3.65E-07  1.69E-04  1.24E-02  0.95062
   2156.    4.638  9.86E-09  4.58E-06  3.52E-07  1.64E-04  0.00E+00  0.00E+00  3.62E-07  1.68E-04  1.24E-02  0.94761
   2158.    4.634  1.04E-08  4.84E-06  3.48E-07  1.62E-04  0.00E+00  0.00E+00  3.59E-07  1.67E-04  1.24E-02  0.94427
   2160.    4.630  1.08E-08  5.02E-06  3.45E-07  1.61E-04  0.00E+00  0.00E+00  3.56E-07  1.66E-04  1.24E-02  0.94177
   2162.    4.625  1.15E-08  5.36E-06  3.41E-07  1.59E-04  0.00E+00  0.00E+00  3.53E-07  1.65E-04  1.24E-02  0.93756
   2164.    4.621  1.34E-08  6.29E-06  3.35E-07  1.57E-04  0.00E+00  0.00E+00  3.48E-07  1.63E-04  1.24E-02  0.92684
   2166.    4.617  1.47E-08  6.89E-06  3.30E-07  1.55E-04  0.00E+00  0.00E+00  3.45E-07  1.62E-04  1.24E-02  0.91951
   2168.    4.613  1.35E-08  6.33E-06  3.30E-07  1.55E-04  0.00E+00  0.00E+00  3.43E-07  1.61E-04  1.24E-02  0.92477
   2170.    4.608  1.35E-08  6.36E-06  3.27E-07  1.54E-04  0.00E+00  0.00E+00  3.40E-07  1.60E-04  1.24E-02  0.92368
   2172.    4.604  1.40E-08  6.59E-06  3.23E-07  1.53E-04  0.00E+00  0.00E+00  3.37E-07  1.59E-04  1.24E-02  0.92037
   2174.    4.600  1.44E-08  6.80E-06  3.20E-07  1.51E-04  0.00E+00  0.00E+00  3.35E-07  1.58E-04  1.24E-02  0.91743
   2176.    4.596  1.48E-08  7.02E-06  3.17E-07  1.50E-04  0.00E+00  0.00E+00  3.32E-07  1.57E-04  1.24E-02  0.91427
   2178.    4.591  1.53E-08  7.24E-06  3.14E-07  1.49E-04  0.00E+00  0.00E+00  3.29E-07  1.56E-04  1.24E-02  0.91111
   2180.    4.587  1.58E-08  7.49E-06  3.10E-07  1.47E-04  0.00E+00  0.00E+00  3.26E-07  1.55E-04  1.24E-02  0.90747
   2182.    4.583  1.64E-08  7.80E-06  3.07E-07  1.46E-04  0.00E+00  0.00E+00  3.23E-07  1.54E-04  1.24E-02  0.90321
   2184.    4.579  1.70E-08  8.11E-06  3.03E-07  1.45E-04  0.00E+00  0.00E+00  3.20E-07  1.53E-04  1.24E-02  0.89873
   2186.    4.575  1.77E-08  8.47E-06  2.99E-07  1.43E-04  0.00E+00  0.00E+00  3.17E-07  1.51E-04  1.24E-02  0.89379
   2188.    4.570  1.84E-08  8.82E-06  2.95E-07  1.41E-04  0.00E+00  0.00E+00  3.14E-07  1.50E-04  1.24E-02  0.88878
   2190.    4.566  1.92E-08  9.19E-06  2.92E-07  1.40E-04  0.00E+00  0.00E+00  3.11E-07  1.49E-04  1.24E-02  0.88355
   2192.    4.562  2.00E-08  9.59E-06  2.88E-07  1.38E-04  0.00E+00  0.00E+00  3.08E-07  1.48E-04  1.24E-02  0.87803
   2194.    4.558  2.09E-08  1.00E-05  2.84E-07  1.37E-04  0.00E+00  0.00E+00  3.05E-07  1.47E-04  1.24E-02  0.87184
   2196.    4.554  2.18E-08  1.05E-05  2.80E-07  1.35E-04  0.00E+00  0.00E+00  3.02E-07  1.45E-04  1.24E-02  0.86534
   2198.    4.550  2.28E-08  1.10E-05  2.76E-07  1.33E-04  0.00E+00  0.00E+00  2.98E-07  1.44E-04  1.24E-02  0.85843
   2200.    4.545  2.40E-08  1.16E-05  2.71E-07  1.31E-04  0.00E+00  0.00E+00  2.95E-07  1.43E-04  1.24E-02  0.85024
0INTEGRATED ABSORPTION FROM    2 TO 2200 CM-1 =    304.85 CM-1
 AVERAGE TRANSMITTANCE =0.8613

0INTEGRATED RADIANCE =  1.242E-02 WATTS CM-2 STER-1
 MINIMUM RADIANCE    =  1.209E-09 WATTS CM-2 STER-1 (CM-1)-1 AT        2.0 CM-1
 MAXIMUM RADIANCE    =  1.481E-05 WATTS CM-2 STER-1 (CM-1)-1 AT      540.0 CM-1
 BOUNDARY TEMPERATURE =     299.70 K
 BOUNDARY EMISSIVITY =       0.971
0 CARD 5 *****    0

