 *****  MODTRAN3 Version 1.3  12/1/95  *****
0 CARD 1  *****T   1    3    1    0    0    0    0    0    0    0    0    0   -1   0.000  -1.00
 co2mx co2rat ch4rat h2orat t_o3rat s_o3rat scalefreon    0.0000000       0.0000000       0.0000000      0.69999999       0.0000000       0.0000000       0.0000000    
0 CARD 2  *****    0    0    0    0    0    0     0.000     0.000     0.000     0.000     0.000
0 CARD 3  *****    70.000     0.000   180.000     0.000     0.000     0.000    0
0 CARD 4  *****         2      2200         2         3
0 PROGRAM WILL COMPUTE RADIANCE                
0 ATMOSPHERIC MODEL
          TEMPERATURE =    1     TROPICAL MODEL      
          WATER VAPOR =    1     TROPICAL MODEL      
          OZONE       =    1     TROPICAL MODEL      
                      M4 =     1 M5 =     1 M6 =     1 MDEF =     1
0 SLANT PATH TO SPACE
          H1    =     70.000 KM
          HMIN  =      0.000 KM
          ANGLE =    180.000 DEG
0 FREQUENCY RANGE
             IV1 =         2 CM-1  (   5000.00 MICROMETERS)
             IV2 =      2200 CM-1  (      4.55 MICROMETERS)
             IDV =         2 CM-1
           IFWHM =         3 CM-1
1
  ATMOSPHERIC PROFILES

   I     Z       P       T        N2       CNTMSLF MOL SCAT     N-1     O3 (UV)  O2 (UV)
        (KM)    (MB)    (K)            (MOL/CM2 KM)   (-)       (-)  (ATM CM/KM) (ATM CM/KM)

   1     0.00 1013.000  299.7  7.622E-01 7.951E+20 9.112E-01 2.613E-04 0.000E+00 3.342E+04
   2     1.00  904.000  293.7  6.321E-01 3.725E+20 8.298E-01 2.381E-04 0.000E+00 2.927E+04
   3     2.00  805.000  287.7  5.223E-01 1.907E+20 7.543E-01 2.166E-04 0.000E+00 2.562E+04
   4     3.00  715.000  283.7  4.238E-01 4.863E+19 6.794E-01 1.952E-04 0.000E+00 2.219E+04
   5     4.00  633.000  277.0  3.484E-01 1.066E+19 6.160E-01 1.771E-04 0.000E+00 1.945E+04
   6     5.00  559.000  270.3  2.853E-01 4.956E+18 5.575E-01 1.603E-04 0.000E+00 1.703E+04
   7     6.00  492.000  263.6  2.324E-01 1.592E+18 5.032E-01 1.447E-04 0.000E+00 1.490E+04
   8     7.00  432.000  257.0  1.885E-01 4.860E+17 4.531E-01 1.303E-04 0.000E+00 1.302E+04
   9     8.00  378.000  250.3  1.522E-01 1.377E+17 4.071E-01 1.171E-04 0.000E+00 1.138E+04
  10     9.00  329.000  243.6  1.217E-01 3.171E+16 3.641E-01 1.047E-04 0.000E+00 9.902E+03
  11    10.00  286.000  237.0  9.716E-02 5.511E+15 3.253E-01 9.356E-05 0.000E+00 8.629E+03
  12    11.00  247.000  230.1  7.688E-02 6.367E+14 2.894E-01 8.322E-05 0.000E+00 7.496E+03
  13    12.00  213.000  223.6  6.054E-02 7.927E+13 2.568E-01 7.386E-05 0.000E+00 6.507E+03
  14    13.00  182.000  217.0  4.693E-02 7.136E+12 2.261E-01 6.503E-05 0.000E+00 5.608E+03
  15    14.00  156.000  210.3  3.671E-02 2.204E+12 2.000E-01 5.751E-05 0.000E+00 4.870E+03
  16    15.00  132.000  203.7  2.802E-02 6.955E+11 1.747E-01 5.024E-05 0.000E+00 4.178E+03
  17    16.00  111.000  197.0  2.118E-02 2.958E+11 1.519E-01 4.368E-05 0.000E+00 3.572E+03
  18    17.00   93.700  194.8  1.544E-02 2.014E+11 1.297E-01 3.729E-05 0.000E+00 3.000E+03
  19    18.00   78.900  198.8  1.051E-02 1.233E+11 1.070E-01 3.077E-05 0.000E+00 2.433E+03
  20    19.00   66.600  202.7  7.202E-03 7.554E+10 8.857E-02 2.547E-05 0.000E+00 1.986E+03
  21    20.00   56.500  206.7  4.985E-03 5.228E+10 7.369E-02 2.119E-05 0.000E+00 1.633E+03
  22    21.00   48.000  210.7  3.463E-03 3.773E+10 6.141E-02 1.766E-05 0.000E+00 1.348E+03
  23    22.00   40.900  214.6  2.423E-03 2.948E+10 5.138E-02 1.478E-05 0.000E+00 1.119E+03
  24    23.00   35.000  217.0  1.736E-03 2.265E+10 4.348E-02 1.250E-05 0.000E+00 9.409E+02
  25    24.00   30.000  219.2  1.250E-03 1.985E+10 3.689E-02 1.061E-05 0.000E+00 7.942E+02
  26    25.00   25.700  221.4  8.990E-04 1.473E+10 3.129E-02 9.000E-06 0.000E+00 6.705E+02
  27    30.00   12.200  232.3  1.840E-04 4.568E+09 1.416E-02 4.072E-06 0.000E+00 2.992E+02
  28    35.00    6.000  243.1  4.064E-05 1.334E+09 6.654E-03 1.914E-06 0.000E+00 1.397E+02
  29    40.00    3.050  254.0  9.620E-06 4.036E+08 3.237E-03 9.310E-07 0.000E+00 6.779E+01
  30    45.00    1.590  264.8  2.405E-06 1.213E+08 1.619E-03 4.655E-07 0.000E+00 3.385E+01
  31    50.00    0.854  270.2  6.665E-07 3.723E+07 8.520E-04 2.450E-07 0.000E+00 1.781E+01
  32    70.00    0.058  218.9  4.684E-09 1.472E+05 7.143E-05 2.054E-08 0.000E+00 1.492E+00
  33   100.00    0.000  190.7  1.532E-13 3.804E-02 4.085E-07 1.175E-10 0.000E+00 6.532E-03
1
  ATMOSPHERIC PROFILES

   I     Z       P       T      CNTMFRN     HNO3    AEROSOL 1 AEROSOL 2 AEROSOL 3 AEROSOL 4 AER1*RH   CIRRUS         RH
        (KM)    (MB)    (K)   MOL/CM2 KM ATM CM/KM   (-)       (-)       (-)       (-)       (-)       (-)      (PERCNT)

   1     0.00 1013.000  299.7  4.305E+22 0.000E+00 0.000E+00 0.000E+00 0.000E+00 0.000E+00 0.000E+00 0.000E+00 5.287E+01
   2     1.00  904.000  293.7  2.695E+22 0.000E+00 0.000E+00 0.000E+00 0.000E+00 0.000E+00 0.000E+00 0.000E+00 5.094E+01
   3     2.00  805.000  287.7  1.758E+22 0.000E+00 0.000E+00 0.000E+00 0.000E+00 0.000E+00 0.000E+00 0.000E+00 5.216E+01
   4     3.00  715.000  283.7  8.036E+21 0.000E+00 0.000E+00 0.000E+00 0.000E+00 0.000E+00 0.000E+00 0.000E+00 3.378E+01
   5     4.00  633.000  277.0  3.422E+21 0.000E+00 0.000E+00 0.000E+00 0.000E+00 0.000E+00 0.000E+00 0.000E+00 2.444E+01
   6     5.00  559.000  270.3  2.113E+21 0.000E+00 0.000E+00 0.000E+00 0.000E+00 0.000E+00 0.000E+00 0.000E+00 2.640E+01
   7     6.00  492.000  263.6  1.082E+21 0.000E+00 0.000E+00 0.000E+00 0.000E+00 0.000E+00 0.000E+00 0.000E+00 2.436E+01
   8     7.00  432.000  257.0  5.385E+20 0.000E+00 0.000E+00 0.000E+00 0.000E+00 0.000E+00 0.000E+00 0.000E+00 2.239E+01
   9     8.00  378.000  250.3  2.576E+20 0.000E+00 0.000E+00 0.000E+00 0.000E+00 0.000E+00 0.000E+00 0.000E+00 2.063E+01
  10     9.00  329.000  243.6  1.106E+20 0.000E+00 0.000E+00 0.000E+00 0.000E+00 0.000E+00 0.000E+00 0.000E+00 1.775E+01
  11    10.00  286.000  237.0  4.120E+19 0.000E+00 0.000E+00 0.000E+00 0.000E+00 0.000E+00 0.000E+00 0.000E+00 1.365E+01
  12    11.00  247.000  230.1  1.246E+19 0.000E+00 0.000E+00 0.000E+00 0.000E+00 0.000E+00 0.000E+00 0.000E+00 9.204E+00
  13    12.00  213.000  223.6  3.901E+18 0.000E+00 0.000E+00 0.000E+00 0.000E+00 0.000E+00 0.000E+00 0.000E+00 6.477E+00
  14    13.00  182.000  217.0  1.031E+18 0.000E+00 0.000E+00 0.000E+00 0.000E+00 0.000E+00 0.000E+00 0.000E+00 4.117E+00
  15    14.00  156.000  210.3  5.065E+17 0.000E+00 0.000E+00 0.000E+00 0.000E+00 0.000E+00 0.000E+00 0.000E+00 5.187E+00
  16    15.00  132.000  203.7  2.486E+17 0.000E+00 0.000E+00 0.000E+00 0.000E+00 0.000E+00 0.000E+00 0.000E+00 6.946E+00
  17    16.00  111.000  197.0  1.410E+17 0.000E+00 0.000E+00 0.000E+00 0.000E+00 0.000E+00 0.000E+00 0.000E+00 1.174E+01
  18    17.00   93.700  194.8  9.930E+16 0.000E+00 0.000E+00 0.000E+00 0.000E+00 0.000E+00 0.000E+00 0.000E+00 1.347E+01
  19    18.00   78.900  198.8  6.411E+16 0.000E+00 0.000E+00 0.000E+00 0.000E+00 0.000E+00 0.000E+00 0.000E+00 5.825E+00
  20    19.00   66.600  202.7  4.154E+16 0.000E+00 0.000E+00 0.000E+00 0.000E+00 0.000E+00 0.000E+00 0.000E+00 2.626E+00
  21    20.00   56.500  206.7  2.875E+16 0.000E+00 0.000E+00 0.000E+00 0.000E+00 0.000E+00 0.000E+00 0.000E+00 1.273E+00
  22    21.00   48.000  210.7  2.035E+16 0.000E+00 0.000E+00 0.000E+00 0.000E+00 0.000E+00 0.000E+00 0.000E+00 6.452E-01
  23    22.00   40.900  214.6  1.505E+16 0.000E+00 0.000E+00 0.000E+00 0.000E+00 0.000E+00 0.000E+00 0.000E+00 3.523E-01
  24    23.00   35.000  217.0  1.116E+16 0.000E+00 0.000E+00 0.000E+00 0.000E+00 0.000E+00 0.000E+00 0.000E+00 2.319E-01
  25    24.00   30.000  219.2  8.871E+15 0.000E+00 0.000E+00 0.000E+00 0.000E+00 0.000E+00 0.000E+00 0.000E+00 1.681E-01
  26    25.00   25.700  221.4  6.481E+15 0.000E+00 0.000E+00 0.000E+00 0.000E+00 0.000E+00 0.000E+00 0.000E+00 1.127E-01
  27    30.00   12.200  232.3  1.633E+15 0.000E+00 0.000E+00 0.000E+00 0.000E+00 0.000E+00 0.000E+00 0.000E+00 1.972E-02
  28    35.00    6.000  243.1  4.147E+14 0.000E+00 0.000E+00 0.000E+00 0.000E+00 0.000E+00 0.000E+00 0.000E+00 3.808E-03
  29    40.00    3.050  254.0  1.110E+14 0.000E+00 0.000E+00 0.000E+00 0.000E+00 0.000E+00 0.000E+00 0.000E+00 8.214E-04
  30    45.00    1.590  264.8  3.041E+13 0.000E+00 0.000E+00 0.000E+00 0.000E+00 0.000E+00 0.000E+00 0.000E+00 1.944E-04
  31    50.00    0.854  270.2  8.870E+12 0.000E+00 0.000E+00 0.000E+00 0.000E+00 0.000E+00 0.000E+00 0.000E+00 7.286E-05
  32    70.00    0.058  218.9  4.675E+10 0.000E+00 0.000E+00 0.000E+00 0.000E+00 0.000E+00 0.000E+00 0.000E+00 4.737E-04
  33   100.00    0.000  190.7  1.360E+05 0.000E+00 0.000E+00 0.000E+00 0.000E+00 0.000E+00 0.000E+00 0.000E+00 1.108E-05
1
  ATMOSPHERIC PROFILES

   I      Z       P       T      H2O      O3       CO2      CO       CH4      N2O      O2       NH3      NO       NO2      SO2
         (KM)    (MB)    (K)  (                                    MBAR                                                       )
   1     0.00 1013.000  299.7  1.33E+01 0.00E+00 0.00E+00 0.00E+00 0.00E+00 0.00E+00 2.09E+05 0.00E+00 0.00E+00 0.00E+00 0.00E+00
   2     1.00  904.000  293.7  9.09E+00 0.00E+00 0.00E+00 0.00E+00 0.00E+00 0.00E+00 2.09E+05 0.00E+00 0.00E+00 0.00E+00 0.00E+00
   3     2.00  805.000  287.7  6.50E+00 0.00E+00 0.00E+00 0.00E+00 0.00E+00 0.00E+00 2.09E+05 0.00E+00 0.00E+00 0.00E+00 0.00E+00
   4     3.00  715.000  283.7  3.28E+00 0.00E+00 0.00E+00 0.00E+00 0.00E+00 0.00E+00 2.09E+05 0.00E+00 0.00E+00 0.00E+00 0.00E+00
   5     4.00  633.000  277.0  1.54E+00 0.00E+00 0.00E+00 0.00E+00 0.00E+00 0.00E+00 2.09E+05 0.00E+00 0.00E+00 0.00E+00 0.00E+00
   6     5.00  559.000  270.3  1.05E+00 0.00E+00 0.00E+00 0.00E+00 0.00E+00 0.00E+00 2.09E+05 0.00E+00 0.00E+00 0.00E+00 0.00E+00
   7     6.00  492.000  263.6  5.94E-01 0.00E+00 0.00E+00 0.00E+00 0.00E+00 0.00E+00 2.09E+05 0.00E+00 0.00E+00 0.00E+00 0.00E+00
   8     7.00  432.000  257.0  3.28E-01 0.00E+00 0.00E+00 0.00E+00 0.00E+00 0.00E+00 2.09E+05 0.00E+00 0.00E+00 0.00E+00 0.00E+00
   9     8.00  378.000  250.3  1.75E-01 0.00E+00 0.00E+00 0.00E+00 0.00E+00 0.00E+00 2.09E+05 0.00E+00 0.00E+00 0.00E+00 0.00E+00
  10     9.00  329.000  243.6  8.39E-02 0.00E+00 0.00E+00 0.00E+00 0.00E+00 0.00E+00 2.09E+05 0.00E+00 0.00E+00 0.00E+00 0.00E+00
  11    10.00  286.000  237.0  3.50E-02 0.00E+00 0.00E+00 0.00E+00 0.00E+00 0.00E+00 2.09E+05 0.00E+00 0.00E+00 0.00E+00 0.00E+00
  12    11.00  247.000  230.1  1.19E-02 0.00E+00 0.00E+00 0.00E+00 0.00E+00 0.00E+00 2.09E+05 0.00E+00 0.00E+00 0.00E+00 0.00E+00
  13    12.00  213.000  223.6  4.19E-03 0.00E+00 0.00E+00 0.00E+00 0.00E+00 0.00E+00 2.09E+05 0.00E+00 0.00E+00 0.00E+00 0.00E+00
  14    13.00  182.000  217.0  1.26E-03 0.00E+00 0.00E+00 0.00E+00 0.00E+00 0.00E+00 2.09E+05 0.00E+00 0.00E+00 0.00E+00 0.00E+00
  15    14.00  156.000  210.3  6.99E-04 0.00E+00 0.00E+00 0.00E+00 0.00E+00 0.00E+00 2.09E+05 0.00E+00 0.00E+00 0.00E+00 0.00E+00
  16    15.00  132.000  203.7  3.93E-04 0.00E+00 0.00E+00 0.00E+00 0.00E+00 0.00E+00 2.09E+05 0.00E+00 0.00E+00 0.00E+00 0.00E+00
  17    16.00  111.000  197.0  2.56E-04 0.00E+00 0.00E+00 0.00E+00 0.00E+00 0.00E+00 2.09E+05 0.00E+00 0.00E+00 0.00E+00 0.00E+00
  18    17.00   93.700  194.8  2.11E-04 0.00E+00 0.00E+00 0.00E+00 0.00E+00 0.00E+00 2.09E+05 0.00E+00 0.00E+00 0.00E+00 0.00E+00
  19    18.00   78.900  198.8  1.65E-04 0.00E+00 0.00E+00 0.00E+00 0.00E+00 0.00E+00 2.09E+05 0.00E+00 0.00E+00 0.00E+00 0.00E+00
  20    19.00   66.600  202.7  1.29E-04 0.00E+00 0.00E+00 0.00E+00 0.00E+00 0.00E+00 2.09E+05 0.00E+00 0.00E+00 0.00E+00 0.00E+00
  21    20.00   56.500  206.7  1.08E-04 0.00E+00 0.00E+00 0.00E+00 0.00E+00 0.00E+00 2.09E+05 0.00E+00 0.00E+00 0.00E+00 0.00E+00
  22    21.00   48.000  210.7  9.15E-05 0.00E+00 0.00E+00 0.00E+00 0.00E+00 0.00E+00 2.09E+05 0.00E+00 0.00E+00 0.00E+00 0.00E+00
  23    22.00   40.900  214.6  8.09E-05 0.00E+00 0.00E+00 0.00E+00 0.00E+00 0.00E+00 2.09E+05 0.00E+00 0.00E+00 0.00E+00 0.00E+00
  24    23.00   35.000  217.0  7.09E-05 0.00E+00 0.00E+00 0.00E+00 0.00E+00 0.00E+00 2.09E+05 0.00E+00 0.00E+00 0.00E+00 0.00E+00
  25    24.00   30.000  219.2  6.64E-05 0.00E+00 0.00E+00 0.00E+00 0.00E+00 0.00E+00 2.09E+05 0.00E+00 0.00E+00 0.00E+00 0.00E+00
  26    25.00   25.700  221.4  5.72E-05 0.00E+00 0.00E+00 0.00E+00 0.00E+00 0.00E+00 2.09E+05 0.00E+00 0.00E+00 0.00E+00 0.00E+00
  27    30.00   12.200  232.3  3.18E-05 0.00E+00 0.00E+00 0.00E+00 0.00E+00 0.00E+00 2.09E+05 0.00E+00 0.00E+00 0.00E+00 0.00E+00
  28    35.00    6.000  243.1  1.72E-05 0.00E+00 0.00E+00 0.00E+00 0.00E+00 0.00E+00 2.09E+05 0.00E+00 0.00E+00 0.00E+00 0.00E+00
  29    40.00    3.050  254.0  9.46E-06 0.00E+00 0.00E+00 0.00E+00 0.00E+00 0.00E+00 2.09E+05 0.00E+00 0.00E+00 0.00E+00 0.00E+00
  30    45.00    1.590  264.8  5.19E-06 0.00E+00 0.00E+00 0.00E+00 0.00E+00 0.00E+00 2.09E+05 0.00E+00 0.00E+00 0.00E+00 0.00E+00
  31    50.00    0.854  270.2  2.87E-06 0.00E+00 0.00E+00 0.00E+00 0.00E+00 0.00E+00 2.09E+05 0.00E+00 0.00E+00 0.00E+00 0.00E+00
  32    70.00    0.058  218.9  1.81E-07 0.00E+00 0.00E+00 0.00E+00 0.00E+00 0.00E+00 2.09E+05 0.00E+00 0.00E+00 0.00E+00 0.00E+00
  33   100.00    0.000  190.7  9.19E-11 0.00E+00 0.00E+00 0.00E+00 0.00E+00 0.00E+00 1.60E+05 0.00E+00 0.00E+00 0.00E+00 0.00E+00
1
  ATMOSPHERIC PROFILES

   I      Z       P       T     CFC-11   CFC-12   CFC-13   CFC-14   CFC-22   CFC-113  CFC-114  CFC-115  CLONO2    HNO4    CHCL2F 
                                 CCL4     N2O5  
         (KM)    (MB)    (K)  (                                 ATM CM/KM                                                     )
   1     0.00 1013.000  299.7  0.00E+00 0.00E+00 0.00E+00 0.00E+00 0.00E+00 0.00E+00 0.00E+00 0.00E+00 0.00E+00 0.00E+00 0.00E+00
                               0.00E+00 0.00E+00
   2     1.00  904.000  293.7  0.00E+00 0.00E+00 0.00E+00 0.00E+00 0.00E+00 0.00E+00 0.00E+00 0.00E+00 0.00E+00 0.00E+00 0.00E+00
                               0.00E+00 0.00E+00
   3     2.00  805.000  287.7  0.00E+00 0.00E+00 0.00E+00 0.00E+00 0.00E+00 0.00E+00 0.00E+00 0.00E+00 0.00E+00 0.00E+00 0.00E+00
                               0.00E+00 0.00E+00
   4     3.00  715.000  283.7  0.00E+00 0.00E+00 0.00E+00 0.00E+00 0.00E+00 0.00E+00 0.00E+00 0.00E+00 0.00E+00 0.00E+00 0.00E+00
                               0.00E+00 0.00E+00
   5     4.00  633.000  277.0  0.00E+00 0.00E+00 0.00E+00 0.00E+00 0.00E+00 0.00E+00 0.00E+00 0.00E+00 0.00E+00 0.00E+00 0.00E+00
                               0.00E+00 0.00E+00
   6     5.00  559.000  270.3  0.00E+00 0.00E+00 0.00E+00 0.00E+00 0.00E+00 0.00E+00 0.00E+00 0.00E+00 0.00E+00 0.00E+00 0.00E+00
                               0.00E+00 0.00E+00
   7     6.00  492.000  263.6  0.00E+00 0.00E+00 0.00E+00 0.00E+00 0.00E+00 0.00E+00 0.00E+00 0.00E+00 0.00E+00 0.00E+00 0.00E+00
                               0.00E+00 0.00E+00
   8     7.00  432.000  257.0  0.00E+00 0.00E+00 0.00E+00 0.00E+00 0.00E+00 0.00E+00 0.00E+00 0.00E+00 0.00E+00 0.00E+00 0.00E+00
                               0.00E+00 0.00E+00
   9     8.00  378.000  250.3  0.00E+00 0.00E+00 0.00E+00 0.00E+00 0.00E+00 0.00E+00 0.00E+00 0.00E+00 0.00E+00 0.00E+00 0.00E+00
                               0.00E+00 0.00E+00
  10     9.00  329.000  243.6  0.00E+00 0.00E+00 0.00E+00 0.00E+00 0.00E+00 0.00E+00 0.00E+00 0.00E+00 0.00E+00 0.00E+00 0.00E+00
                               0.00E+00 0.00E+00
  11    10.00  286.000  237.0  0.00E+00 0.00E+00 0.00E+00 0.00E+00 0.00E+00 0.00E+00 0.00E+00 0.00E+00 0.00E+00 0.00E+00 0.00E+00
                               0.00E+00 0.00E+00
  12    11.00  247.000  230.1  0.00E+00 0.00E+00 0.00E+00 0.00E+00 0.00E+00 0.00E+00 0.00E+00 0.00E+00 0.00E+00 0.00E+00 0.00E+00
                               0.00E+00 0.00E+00
  13    12.00  213.000  223.6  0.00E+00 0.00E+00 0.00E+00 0.00E+00 0.00E+00 0.00E+00 0.00E+00 0.00E+00 0.00E+00 0.00E+00 0.00E+00
                               0.00E+00 0.00E+00
  14    13.00  182.000  217.0  0.00E+00 0.00E+00 0.00E+00 0.00E+00 0.00E+00 0.00E+00 0.00E+00 0.00E+00 0.00E+00 0.00E+00 0.00E+00
                               0.00E+00 0.00E+00
  15    14.00  156.000  210.3  0.00E+00 0.00E+00 0.00E+00 0.00E+00 0.00E+00 0.00E+00 0.00E+00 0.00E+00 0.00E+00 0.00E+00 0.00E+00
                               0.00E+00 0.00E+00
  16    15.00  132.000  203.7  0.00E+00 0.00E+00 0.00E+00 0.00E+00 0.00E+00 0.00E+00 0.00E+00 0.00E+00 0.00E+00 0.00E+00 0.00E+00
                               0.00E+00 0.00E+00
  17    16.00  111.000  197.0  0.00E+00 0.00E+00 0.00E+00 0.00E+00 0.00E+00 0.00E+00 0.00E+00 0.00E+00 0.00E+00 0.00E+00 0.00E+00
                               0.00E+00 0.00E+00
  18    17.00   93.700  194.8  0.00E+00 0.00E+00 0.00E+00 0.00E+00 0.00E+00 0.00E+00 0.00E+00 0.00E+00 0.00E+00 0.00E+00 0.00E+00
                               0.00E+00 0.00E+00
  19    18.00   78.900  198.8  0.00E+00 0.00E+00 0.00E+00 0.00E+00 0.00E+00 0.00E+00 0.00E+00 0.00E+00 0.00E+00 0.00E+00 0.00E+00
                               0.00E+00 0.00E+00
  20    19.00   66.600  202.7  0.00E+00 0.00E+00 0.00E+00 0.00E+00 0.00E+00 0.00E+00 0.00E+00 0.00E+00 0.00E+00 0.00E+00 0.00E+00
                               0.00E+00 0.00E+00
  21    20.00   56.500  206.7  0.00E+00 0.00E+00 0.00E+00 0.00E+00 0.00E+00 0.00E+00 0.00E+00 0.00E+00 0.00E+00 0.00E+00 0.00E+00
                               0.00E+00 0.00E+00
  22    21.00   48.000  210.7  0.00E+00 0.00E+00 0.00E+00 0.00E+00 0.00E+00 0.00E+00 0.00E+00 0.00E+00 0.00E+00 0.00E+00 0.00E+00
                               0.00E+00 0.00E+00
  23    22.00   40.900  214.6  0.00E+00 0.00E+00 0.00E+00 0.00E+00 0.00E+00 0.00E+00 0.00E+00 0.00E+00 0.00E+00 0.00E+00 0.00E+00
                               0.00E+00 0.00E+00
  24    23.00   35.000  217.0  0.00E+00 0.00E+00 0.00E+00 0.00E+00 0.00E+00 0.00E+00 0.00E+00 0.00E+00 0.00E+00 0.00E+00 0.00E+00
                               0.00E+00 0.00E+00
  25    24.00   30.000  219.2  0.00E+00 0.00E+00 0.00E+00 0.00E+00 0.00E+00 0.00E+00 0.00E+00 0.00E+00 0.00E+00 0.00E+00 0.00E+00
                               0.00E+00 0.00E+00
  26    25.00   25.700  221.4  0.00E+00 0.00E+00 0.00E+00 0.00E+00 0.00E+00 0.00E+00 0.00E+00 0.00E+00 0.00E+00 0.00E+00 0.00E+00
                               0.00E+00 0.00E+00
  27    30.00   12.200  232.3  0.00E+00 0.00E+00 0.00E+00 0.00E+00 0.00E+00 0.00E+00 0.00E+00 0.00E+00 0.00E+00 0.00E+00 0.00E+00
                               0.00E+00 0.00E+00
  28    35.00    6.000  243.1  0.00E+00 0.00E+00 0.00E+00 0.00E+00 0.00E+00 0.00E+00 0.00E+00 0.00E+00 0.00E+00 0.00E+00 0.00E+00
                               0.00E+00 0.00E+00
  29    40.00    3.050  254.0  0.00E+00 0.00E+00 0.00E+00 0.00E+00 0.00E+00 0.00E+00 0.00E+00 0.00E+00 0.00E+00 0.00E+00 0.00E+00
                               0.00E+00 0.00E+00
  30    45.00    1.590  264.8  0.00E+00 0.00E+00 0.00E+00 0.00E+00 0.00E+00 0.00E+00 0.00E+00 0.00E+00 0.00E+00 0.00E+00 0.00E+00
                               0.00E+00 0.00E+00
  31    50.00    0.854  270.2  0.00E+00 0.00E+00 0.00E+00 0.00E+00 0.00E+00 0.00E+00 0.00E+00 0.00E+00 0.00E+00 0.00E+00 0.00E+00
                               0.00E+00 0.00E+00
  32    70.00    0.058  218.9  0.00E+00 0.00E+00 0.00E+00 0.00E+00 0.00E+00 0.00E+00 0.00E+00 0.00E+00 0.00E+00 0.00E+00 0.00E+00
                               0.00E+00 0.00E+00
  33   100.00    0.000  190.7  0.00E+00 0.00E+00 0.00E+00 0.00E+00 0.00E+00 0.00E+00 0.00E+00 0.00E+00 0.00E+00 0.00E+00 0.00E+00
                               0.00E+00 0.00E+00


 CASE 3A: GIVEN H1,H2=SPACE,ANGLE



 TANGENT PATH WITH H1 =     70.000 AND ANGLE =    180.000 INTERSECTS THE EARTH

          H2 HAS BEEN RESET TO 0.0 AND LEN TO 0



 SLANT PATH PARAMETERS IN STANDARD FORM

          H1      =     70.000 KM
          H2      =      0.000 KM
          ANGLE   =    180.000 DEG
          PHI     =      0.000 DEG
          HMIN    =      0.000 KM
          LEN     =          0
1CALCULATION OF THE REFRACTED PATH THROUGH THE ATMOSPHERE


  I       ALTITUDE        THETA  DRANGE    RANGE    DBETA     BETA     PHI     DBEND  BENDING    PBAR    TBAR   RHOBAR
      FROM       TO
      (KM)      (KM)      (DEG)    (KM)     (KM)    (DEG)    (DEG)    (DEG)    (DEG)    (DEG)    (MB)    (K)  (GM CM-3)

          H2 TO H1

  1    0.000    1.000    0.000    1.000    1.000    0.000    0.000  180.000    0.000    0.000  958.316  296.74 1.12E-03
  2    1.000    2.000    0.000    1.000    2.000    0.000    0.000  180.000    0.000    0.000  854.330  290.74 1.02E-03
  3    2.000    3.000    0.000    1.000    3.000    0.000    0.000  180.000    0.000    0.000  759.895  285.73 9.26E-04
  4    3.000    4.000    0.000    1.000    4.000    0.000    0.000  180.000    0.000    0.000  673.837  280.39 8.36E-04
  5    4.000    5.000    0.000    1.000    5.000    0.000    0.000  180.000    0.000    0.000  595.849  273.69 7.58E-04
  6    5.000    6.000    0.000    1.000    6.000    0.000    0.000  180.000    0.000    0.000  525.360  266.99 6.85E-04
  7    6.000    7.000    0.000    1.000    7.000    0.000    0.000  180.000    0.000    0.000  461.873  260.34 6.17E-04
  8    7.000    8.000    0.000    1.000    8.000    0.000    0.000  180.000    0.000    0.000  404.881  253.70 5.55E-04
  9    8.000    9.000    0.000    1.000    9.000    0.000    0.000  180.000    0.000    0.000  353.389  247.00 4.98E-04
 10    9.000   10.000    0.000    1.000   10.000    0.000    0.000  180.000    0.000    0.000  307.402  240.35 4.45E-04
 11   10.000   11.000    0.000    1.000   11.000    0.000    0.000  180.000    0.000    0.000  266.404  233.60 3.97E-04
 12   11.000   12.000    0.000    1.000   12.000    0.000    0.000  180.000    0.000    0.000  229.919  226.90 3.52E-04
 13   12.000   13.000    0.000    1.000   13.000    0.000    0.000  180.000    0.000    0.000  197.423  220.35 3.12E-04
 14   13.000   14.000    0.000    1.000   14.000    0.000    0.000  180.000    0.000    0.000  168.932  213.70 2.75E-04
 15   14.000   15.000    0.000    1.000   15.000    0.000    0.000  180.000    0.000    0.000  143.936  207.06 2.42E-04
 16   15.000   16.000    0.000    1.000   16.000    0.000    0.000  180.000    0.000    0.000  121.442  200.41 2.11E-04
 17   16.000   17.000    0.000    1.000   17.000    0.000    0.000  180.000    0.000    0.000  102.334  195.93 1.82E-04
 18   17.000   18.000    0.000    1.000   18.000    0.000    0.000  180.000    0.000    0.000   86.325  196.73 1.52E-04
 19   18.000   19.000    0.000    1.000   19.000    0.000    0.000  180.000    0.000    0.000   72.770  200.68 1.26E-04
 20   19.000   20.000    0.000    1.000   20.000    0.000    0.000  180.000    0.000    0.000   61.566  204.63 1.05E-04
 21   20.000   21.000    0.000    1.000   21.000    0.000    0.000  180.000    0.000    0.000   52.264  208.63 8.71E-05
 22   21.000   22.000    0.000    1.000   22.000    0.000    0.000  180.000    0.000    0.000   44.461  212.59 7.27E-05
 23   22.000   23.000    0.000    1.000   23.000    0.000    0.000  180.000    0.000    0.000   37.955  215.76 6.11E-05
 24   23.000   24.000    0.000    1.000   24.000    0.000    0.000  180.000    0.000    0.000   32.504  218.07 5.18E-05
 25   24.000   25.000    0.000    1.000   25.000    0.000    0.000  180.000    0.000    0.000   27.854  220.27 4.40E-05
 26   25.000   30.000    0.000    5.000   30.000    0.000    0.000  180.000    0.000    0.000   19.003  226.09 2.79E-05
 27   30.000   35.000    0.000    5.000   35.000    0.000    0.000  180.000    0.000    0.000    9.123  236.99 1.28E-05
 28   35.000   40.000    0.000    5.000   40.000    0.000    0.000  180.000    0.000    0.000    4.536  247.86 6.13E-06
 29   40.000   45.000    0.000    5.000   45.000    0.000    0.000  180.000    0.000    0.000    2.325  258.74 3.02E-06
 30   45.000   50.000    0.000    5.000   50.000    0.000    0.000  180.000    0.000    0.000    1.223  267.20 1.54E-06
 31   50.000   70.000    0.000   20.000   70.000    0.000    0.000  180.000    0.000    0.000    0.445  253.37 4.07E-07




1CUMULATIVE ABSORBER AMOUNTS FOR THE PATH FROM H1 TO Z

  J     Z        TBAR     HNO3        O3 UV      CNTMSLF1   CNTMSLF2    CNTMFRN      O2
       (KM)       (K)   (ATM CM)    (ATM CM)    (MOL CM-2)  (MOL CM-2)  (MOL CM-2)(MOL CM-2)

  1   50.000   253.37   0.000E+00   0.000E+00   1.340E+08   1.587E+08   3.364E+13   1.316E+02
  2   45.000   267.20   0.000E+00   0.000E+00   4.898E+08   4.433E+08   1.211E+14   2.565E+02
  3   40.000   258.74   0.000E+00   0.000E+00   1.664E+09   1.658E+09   4.322E+14   5.009E+02
  4   35.000   247.86   0.000E+00   0.000E+00   5.555E+09   6.862E+09   1.584E+15   9.982E+02
  5   30.000   236.99   0.000E+00   0.000E+00   1.869E+10   2.840E+10   6.028E+15   2.045E+03
  6   25.000   226.09   0.000E+00   0.000E+00   6.209E+10   1.127E+11   2.361E+16   4.346E+03
  7   24.000   220.27   0.000E+00   0.000E+00   7.926E+10   1.488E+11   3.123E+16   5.077E+03
  8   23.000   218.07   0.000E+00   0.000E+00   1.005E+11   1.947E+11   4.120E+16   5.942E+03
  9   22.000   215.76   0.000E+00   0.000E+00   1.264E+11   2.525E+11   5.421E+16   6.969E+03
 10   21.000   212.59   0.000E+00   0.000E+00   1.598E+11   3.299E+11   7.178E+16   8.199E+03
 11   20.000   208.63   0.000E+00   0.000E+00   2.044E+11   4.382E+11   9.609E+16   9.685E+03
 12   19.000   204.63   0.000E+00   0.000E+00   2.676E+11   5.986E+11   1.308E+17   1.149E+04
 13   18.000   200.68   0.000E+00   0.000E+00   3.651E+11   8.567E+11   1.829E+17   1.369E+04
 14   17.000   196.73   0.000E+00   0.000E+00   5.243E+11   1.296E+12   2.633E+17   1.640E+04
 15   16.000   195.93   0.000E+00   0.000E+00   7.699E+11   1.978E+12   3.822E+17   1.968E+04
 16   15.000   200.41   0.000E+00   0.000E+00   1.237E+12   3.220E+12   5.719E+17   2.354E+04
 17   14.000   207.06   0.000E+00   0.000E+00   2.545E+12   6.450E+12   9.343E+17   2.806E+04
 18   13.000   213.70   0.000E+00   0.000E+00   6.743E+12   1.605E+13   1.672E+18   3.329E+04
 19   12.000   220.35   0.000E+00   0.000E+00   3.670E+13   7.900E+13   3.829E+18   3.933E+04
 20   11.000   226.90   0.000E+00   0.000E+00   3.042E+14   5.925E+14   1.120E+19   4.632E+04
 21   10.000   233.60   0.000E+00   0.000E+00   2.563E+15   4.507E+15   3.523E+19   5.437E+04
 22    9.000   240.35   0.000E+00   0.000E+00   1.753E+16   2.765E+16   1.055E+20   6.362E+04
 23    8.000   247.00   0.000E+00   0.000E+00   8.971E+16   1.259E+17   2.794E+20   7.425E+04
 24    7.000   253.70   0.000E+00   0.000E+00   3.659E+17   4.504E+17   6.603E+20   8.643E+04
 25    6.000   260.34   0.000E+00   0.000E+00   1.298E+18   1.374E+18   1.439E+21   1.004E+05
 26    5.000   266.99   0.000E+00   0.000E+00   4.260E+18   3.760E+18   2.979E+21   1.163E+05
 27    4.000   273.69   0.000E+00   0.000E+00   1.171E+19   8.376E+18   5.694E+21   1.345E+05
 28    3.000   280.39   0.000E+00   0.000E+00   3.673E+19   1.922E+19   1.110E+22   1.553E+05
 29    2.000   285.73   0.000E+00   0.000E+00   1.407E+20   4.888E+19   2.329E+22   1.792E+05
 30    1.000   290.74   0.000E+00   0.000E+00   4.122E+20   8.858E+19   4.523E+22   2.066E+05
 31    0.000   296.74   0.000E+00   0.000E+00   9.696E+20   7.717E+19   7.960E+22   2.379E+05



1 J     Z       N2 CONT    MOL SCAT       AER 1       AER 2       AER 3       AER 4       CIRRUS
       (KM)

  1   50.000   2.670E-06   6.298E-03   0.000E+00   0.000E+00   0.000E+00   0.000E+00   0.000E+00
  2   45.000   9.444E-06   1.227E-02   0.000E+00   0.000E+00   0.000E+00   0.000E+00   0.000E+00
  3   40.000   3.547E-05   2.395E-02   0.000E+00   0.000E+00   0.000E+00   0.000E+00   0.000E+00
  4   35.000   1.431E-04   4.766E-02   0.000E+00   0.000E+00   0.000E+00   0.000E+00   0.000E+00
  5   30.000   6.178E-04   9.735E-02   0.000E+00   0.000E+00   0.000E+00   0.000E+00   0.000E+00
  6   25.000   2.871E-03   2.054E-01   0.000E+00   0.000E+00   0.000E+00   0.000E+00   0.000E+00
  7   24.000   3.936E-03   2.394E-01   0.000E+00   0.000E+00   0.000E+00   0.000E+00   0.000E+00
  8   23.000   5.416E-03   2.795E-01   0.000E+00   0.000E+00   0.000E+00   0.000E+00   0.000E+00
  9   22.000   7.476E-03   3.268E-01   0.000E+00   0.000E+00   0.000E+00   0.000E+00   0.000E+00
 10   21.000   1.039E-02   3.830E-01   0.000E+00   0.000E+00   0.000E+00   0.000E+00   0.000E+00
 11   20.000   1.457E-02   4.504E-01   0.000E+00   0.000E+00   0.000E+00   0.000E+00   0.000E+00
 12   19.000   2.059E-02   5.313E-01   0.000E+00   0.000E+00   0.000E+00   0.000E+00   0.000E+00
 13   18.000   2.934E-02   6.288E-01   0.000E+00   0.000E+00   0.000E+00   0.000E+00   0.000E+00
 14   17.000   4.216E-02   7.468E-01   0.000E+00   0.000E+00   0.000E+00   0.000E+00   0.000E+00
 15   16.000   6.032E-02   8.873E-01   0.000E+00   0.000E+00   0.000E+00   0.000E+00   0.000E+00
 16   15.000   8.476E-02   1.050E+00   0.000E+00   0.000E+00   0.000E+00   0.000E+00   0.000E+00
 17   14.000   1.169E-01   1.237E+00   0.000E+00   0.000E+00   0.000E+00   0.000E+00   0.000E+00
 18   13.000   1.585E-01   1.450E+00   0.000E+00   0.000E+00   0.000E+00   0.000E+00   0.000E+00
 19   12.000   2.120E-01   1.691E+00   0.000E+00   0.000E+00   0.000E+00   0.000E+00   0.000E+00
 20   11.000   2.804E-01   1.964E+00   0.000E+00   0.000E+00   0.000E+00   0.000E+00   0.000E+00
 21   10.000   3.670E-01   2.271E+00   0.000E+00   0.000E+00   0.000E+00   0.000E+00   0.000E+00
 22    9.000   4.760E-01   2.615E+00   0.000E+00   0.000E+00   0.000E+00   0.000E+00   0.000E+00
 23    8.000   6.123E-01   3.001E+00   0.000E+00   0.000E+00   0.000E+00   0.000E+00   0.000E+00
 24    7.000   7.820E-01   3.430E+00   0.000E+00   0.000E+00   0.000E+00   0.000E+00   0.000E+00
 25    6.000   9.917E-01   3.908E+00   0.000E+00   0.000E+00   0.000E+00   0.000E+00   0.000E+00
 26    5.000   1.250E+00   4.438E+00   0.000E+00   0.000E+00   0.000E+00   0.000E+00   0.000E+00
 27    4.000   1.566E+00   5.024E+00   0.000E+00   0.000E+00   0.000E+00   0.000E+00   0.000E+00
 28    3.000   1.950E+00   5.671E+00   0.000E+00   0.000E+00   0.000E+00   0.000E+00   0.000E+00
 29    2.000   2.422E+00   6.388E+00   0.000E+00   0.000E+00   0.000E+00   0.000E+00   0.000E+00
 30    1.000   2.997E+00   7.179E+00   0.000E+00   0.000E+00   0.000E+00   0.000E+00   0.000E+00
 31    0.000   3.692E+00   8.049E+00   0.000E+00   0.000E+00   0.000E+00   0.000E+00   0.000E+00



1  J    Z       H2O       O3        CO2       CO        CH4       N2O       O2        NH3       NO        NO2       SO2
      (KM)    (                                                      ATM CM                                             )

   1   50.00  2.42E-03  0.00E+00  0.00E+00  0.00E+00  0.00E+00  0.00E+00  1.32E+02  0.00E+00  0.00E+00  0.00E+00  0.00E+00
   2   45.00  4.86E-03  0.00E+00  0.00E+00  0.00E+00  0.00E+00  0.00E+00  2.56E+02  0.00E+00  0.00E+00  0.00E+00  0.00E+00
   3   40.00  9.28E-03  0.00E+00  0.00E+00  0.00E+00  0.00E+00  0.00E+00  5.00E+02  0.00E+00  0.00E+00  0.00E+00  0.00E+00
   4   35.00  1.73E-02  0.00E+00  0.00E+00  0.00E+00  0.00E+00  0.00E+00  9.95E+02  0.00E+00  0.00E+00  0.00E+00  0.00E+00
   5   30.00  3.21E-02  0.00E+00  0.00E+00  0.00E+00  0.00E+00  0.00E+00  2.03E+03  0.00E+00  0.00E+00  0.00E+00  0.00E+00
   6   25.00  5.91E-02  0.00E+00  0.00E+00  0.00E+00  0.00E+00  0.00E+00  4.29E+03  0.00E+00  0.00E+00  0.00E+00  0.00E+00
   7   24.00  6.67E-02  0.00E+00  0.00E+00  0.00E+00  0.00E+00  0.00E+00  5.00E+03  0.00E+00  0.00E+00  0.00E+00  0.00E+00
   8   23.00  7.53E-02  0.00E+00  0.00E+00  0.00E+00  0.00E+00  0.00E+00  5.84E+03  0.00E+00  0.00E+00  0.00E+00  0.00E+00
   9   22.00  8.47E-02  0.00E+00  0.00E+00  0.00E+00  0.00E+00  0.00E+00  6.83E+03  0.00E+00  0.00E+00  0.00E+00  0.00E+00
  10   21.00  9.54E-02  0.00E+00  0.00E+00  0.00E+00  0.00E+00  0.00E+00  8.00E+03  0.00E+00  0.00E+00  0.00E+00  0.00E+00
  11   20.00  1.08E-01  0.00E+00  0.00E+00  0.00E+00  0.00E+00  0.00E+00  9.41E+03  0.00E+00  0.00E+00  0.00E+00  0.00E+00
  12   19.00  1.22E-01  0.00E+00  0.00E+00  0.00E+00  0.00E+00  0.00E+00  1.11E+04  0.00E+00  0.00E+00  0.00E+00  0.00E+00
  13   18.00  1.41E-01  0.00E+00  0.00E+00  0.00E+00  0.00E+00  0.00E+00  1.31E+04  0.00E+00  0.00E+00  0.00E+00  0.00E+00
  14   17.00  1.64E-01  0.00E+00  0.00E+00  0.00E+00  0.00E+00  0.00E+00  1.56E+04  0.00E+00  0.00E+00  0.00E+00  0.00E+00
  15   16.00  1.93E-01  0.00E+00  0.00E+00  0.00E+00  0.00E+00  0.00E+00  1.85E+04  0.00E+00  0.00E+00  0.00E+00  0.00E+00
  16   15.00  2.33E-01  0.00E+00  0.00E+00  0.00E+00  0.00E+00  0.00E+00  2.19E+04  0.00E+00  0.00E+00  0.00E+00  0.00E+00
  17   14.00  2.99E-01  0.00E+00  0.00E+00  0.00E+00  0.00E+00  0.00E+00  2.58E+04  0.00E+00  0.00E+00  0.00E+00  0.00E+00
  18   13.00  4.17E-01  0.00E+00  0.00E+00  0.00E+00  0.00E+00  0.00E+00  3.03E+04  0.00E+00  0.00E+00  0.00E+00  0.00E+00
  19   12.00  7.21E-01  0.00E+00  0.00E+00  0.00E+00  0.00E+00  0.00E+00  3.53E+04  0.00E+00  0.00E+00  0.00E+00  0.00E+00
  20   11.00  1.64E+00  0.00E+00  0.00E+00  0.00E+00  0.00E+00  0.00E+00  4.10E+04  0.00E+00  0.00E+00  0.00E+00  0.00E+00
  21   10.00  4.30E+00  0.00E+00  0.00E+00  0.00E+00  0.00E+00  0.00E+00  4.74E+04  0.00E+00  0.00E+00  0.00E+00  0.00E+00
  22    9.00  1.13E+01  0.00E+00  0.00E+00  0.00E+00  0.00E+00  0.00E+00  5.46E+04  0.00E+00  0.00E+00  0.00E+00  0.00E+00
  23    8.00  2.67E+01  0.00E+00  0.00E+00  0.00E+00  0.00E+00  0.00E+00  6.27E+04  0.00E+00  0.00E+00  0.00E+00  0.00E+00
  24    7.00  5.70E+01  0.00E+00  0.00E+00  0.00E+00  0.00E+00  0.00E+00  7.16E+04  0.00E+00  0.00E+00  0.00E+00  0.00E+00
  25    6.00  1.13E+02  0.00E+00  0.00E+00  0.00E+00  0.00E+00  0.00E+00  8.16E+04  0.00E+00  0.00E+00  0.00E+00  0.00E+00
  26    5.00  2.12E+02  0.00E+00  0.00E+00  0.00E+00  0.00E+00  0.00E+00  9.27E+04  0.00E+00  0.00E+00  0.00E+00  0.00E+00
  27    4.00  3.71E+02  0.00E+00  0.00E+00  0.00E+00  0.00E+00  0.00E+00  1.05E+05  0.00E+00  0.00E+00  0.00E+00  0.00E+00
  28    3.00  6.58E+02  0.00E+00  0.00E+00  0.00E+00  0.00E+00  0.00E+00  1.18E+05  0.00E+00  0.00E+00  0.00E+00  0.00E+00
  29    2.00  1.24E+03  0.00E+00  0.00E+00  0.00E+00  0.00E+00  0.00E+00  1.33E+05  0.00E+00  0.00E+00  0.00E+00  0.00E+00
  30    1.00  2.21E+03  0.00E+00  0.00E+00  0.00E+00  0.00E+00  0.00E+00  1.50E+05  0.00E+00  0.00E+00  0.00E+00  0.00E+00
  31    0.00  3.58E+03  0.00E+00  0.00E+00  0.00E+00  0.00E+00  0.00E+00  1.68E+05  0.00E+00  0.00E+00  0.00E+00  0.00E+00



1  J    Z      CFC-11    CFC-12    CFC-13    CFC-14    CFC-22    CFC-113   CFC-114   CFC-115   CLONO2     HNO4     CHCL2F 
                CCL4      N2O5  
      (KM)    (                                                   ATM CM                                                )

   1   50.00  0.00E+00  0.00E+00  0.00E+00  0.00E+00  0.00E+00  0.00E+00  0.00E+00  0.00E+00  0.00E+00  0.00E+00  0.00E+00
              0.00E+00  0.00E+00
   2   45.00  0.00E+00  0.00E+00  0.00E+00  0.00E+00  0.00E+00  0.00E+00  0.00E+00  0.00E+00  0.00E+00  0.00E+00  0.00E+00
              0.00E+00  0.00E+00
   3   40.00  0.00E+00  0.00E+00  0.00E+00  0.00E+00  0.00E+00  0.00E+00  0.00E+00  0.00E+00  0.00E+00  0.00E+00  0.00E+00
              0.00E+00  0.00E+00
   4   35.00  0.00E+00  0.00E+00  0.00E+00  0.00E+00  0.00E+00  0.00E+00  0.00E+00  0.00E+00  0.00E+00  0.00E+00  0.00E+00
              0.00E+00  0.00E+00
   5   30.00  0.00E+00  0.00E+00  0.00E+00  0.00E+00  0.00E+00  0.00E+00  0.00E+00  0.00E+00  0.00E+00  0.00E+00  0.00E+00
              0.00E+00  0.00E+00
   6   25.00  0.00E+00  0.00E+00  0.00E+00  0.00E+00  0.00E+00  0.00E+00  0.00E+00  0.00E+00  0.00E+00  0.00E+00  0.00E+00
              0.00E+00  0.00E+00
   7   24.00  0.00E+00  0.00E+00  0.00E+00  0.00E+00  0.00E+00  0.00E+00  0.00E+00  0.00E+00  0.00E+00  0.00E+00  0.00E+00
              0.00E+00  0.00E+00
   8   23.00  0.00E+00  0.00E+00  0.00E+00  0.00E+00  0.00E+00  0.00E+00  0.00E+00  0.00E+00  0.00E+00  0.00E+00  0.00E+00
              0.00E+00  0.00E+00
   9   22.00  0.00E+00  0.00E+00  0.00E+00  0.00E+00  0.00E+00  0.00E+00  0.00E+00  0.00E+00  0.00E+00  0.00E+00  0.00E+00
              0.00E+00  0.00E+00
  10   21.00  0.00E+00  0.00E+00  0.00E+00  0.00E+00  0.00E+00  0.00E+00  0.00E+00  0.00E+00  0.00E+00  0.00E+00  0.00E+00
              0.00E+00  0.00E+00
  11   20.00  0.00E+00  0.00E+00  0.00E+00  0.00E+00  0.00E+00  0.00E+00  0.00E+00  0.00E+00  0.00E+00  0.00E+00  0.00E+00
              0.00E+00  0.00E+00
  12   19.00  0.00E+00  0.00E+00  0.00E+00  0.00E+00  0.00E+00  0.00E+00  0.00E+00  0.00E+00  0.00E+00  0.00E+00  0.00E+00
              0.00E+00  0.00E+00
  13   18.00  0.00E+00  0.00E+00  0.00E+00  0.00E+00  0.00E+00  0.00E+00  0.00E+00  0.00E+00  0.00E+00  0.00E+00  0.00E+00
              0.00E+00  0.00E+00
  14   17.00  0.00E+00  0.00E+00  0.00E+00  0.00E+00  0.00E+00  0.00E+00  0.00E+00  0.00E+00  0.00E+00  0.00E+00  0.00E+00
              0.00E+00  0.00E+00
  15   16.00  0.00E+00  0.00E+00  0.00E+00  0.00E+00  0.00E+00  0.00E+00  0.00E+00  0.00E+00  0.00E+00  0.00E+00  0.00E+00
              0.00E+00  0.00E+00
  16   15.00  0.00E+00  0.00E+00  0.00E+00  0.00E+00  0.00E+00  0.00E+00  0.00E+00  0.00E+00  0.00E+00  0.00E+00  0.00E+00
              0.00E+00  0.00E+00
  17   14.00  0.00E+00  0.00E+00  0.00E+00  0.00E+00  0.00E+00  0.00E+00  0.00E+00  0.00E+00  0.00E+00  0.00E+00  0.00E+00
              0.00E+00  0.00E+00
  18   13.00  0.00E+00  0.00E+00  0.00E+00  0.00E+00  0.00E+00  0.00E+00  0.00E+00  0.00E+00  0.00E+00  0.00E+00  0.00E+00
              0.00E+00  0.00E+00
  19   12.00  0.00E+00  0.00E+00  0.00E+00  0.00E+00  0.00E+00  0.00E+00  0.00E+00  0.00E+00  0.00E+00  0.00E+00  0.00E+00
              0.00E+00  0.00E+00
  20   11.00  0.00E+00  0.00E+00  0.00E+00  0.00E+00  0.00E+00  0.00E+00  0.00E+00  0.00E+00  0.00E+00  0.00E+00  0.00E+00
              0.00E+00  0.00E+00
  21   10.00  0.00E+00  0.00E+00  0.00E+00  0.00E+00  0.00E+00  0.00E+00  0.00E+00  0.00E+00  0.00E+00  0.00E+00  0.00E+00
              0.00E+00  0.00E+00
  22    9.00  0.00E+00  0.00E+00  0.00E+00  0.00E+00  0.00E+00  0.00E+00  0.00E+00  0.00E+00  0.00E+00  0.00E+00  0.00E+00
              0.00E+00  0.00E+00
  23    8.00  0.00E+00  0.00E+00  0.00E+00  0.00E+00  0.00E+00  0.00E+00  0.00E+00  0.00E+00  0.00E+00  0.00E+00  0.00E+00
              0.00E+00  0.00E+00
  24    7.00  0.00E+00  0.00E+00  0.00E+00  0.00E+00  0.00E+00  0.00E+00  0.00E+00  0.00E+00  0.00E+00  0.00E+00  0.00E+00
              0.00E+00  0.00E+00
  25    6.00  0.00E+00  0.00E+00  0.00E+00  0.00E+00  0.00E+00  0.00E+00  0.00E+00  0.00E+00  0.00E+00  0.00E+00  0.00E+00
              0.00E+00  0.00E+00
  26    5.00  0.00E+00  0.00E+00  0.00E+00  0.00E+00  0.00E+00  0.00E+00  0.00E+00  0.00E+00  0.00E+00  0.00E+00  0.00E+00
              0.00E+00  0.00E+00
  27    4.00  0.00E+00  0.00E+00  0.00E+00  0.00E+00  0.00E+00  0.00E+00  0.00E+00  0.00E+00  0.00E+00  0.00E+00  0.00E+00
              0.00E+00  0.00E+00
  28    3.00  0.00E+00  0.00E+00  0.00E+00  0.00E+00  0.00E+00  0.00E+00  0.00E+00  0.00E+00  0.00E+00  0.00E+00  0.00E+00
              0.00E+00  0.00E+00
  29    2.00  0.00E+00  0.00E+00  0.00E+00  0.00E+00  0.00E+00  0.00E+00  0.00E+00  0.00E+00  0.00E+00  0.00E+00  0.00E+00
              0.00E+00  0.00E+00
  30    1.00  0.00E+00  0.00E+00  0.00E+00  0.00E+00  0.00E+00  0.00E+00  0.00E+00  0.00E+00  0.00E+00  0.00E+00  0.00E+00
              0.00E+00  0.00E+00
  31    0.00  0.00E+00  0.00E+00  0.00E+00  0.00E+00  0.00E+00  0.00E+00  0.00E+00  0.00E+00  0.00E+00  0.00E+00  0.00E+00
              0.00E+00  0.00E+00


0SUMMARY OF THE GEOMETRY CALCULATION

          H1      =     70.000 KM
          H2      =      0.000 KM
          ANGLE   =    180.000 DEG
          RANGE   =     70.000 KM
          BETA    =      0.000 DEG
          PHI     =      0.000 DEG
          HMIN    =      0.000 KM
          BENDING =      0.000 DEG
          LEN     =          0




1EQUIVALENT SEA LEVEL TOTAL ABSORBER AMOUNTS

                 HNO3      O3 UV       CNTMSLF1    CNTMSLF2   CNTMFRN
               (ATM CM)   (ATM CM)     (MOL CM-2)  (MOL CM-2)  (MOL CM-2)  (MOL CM-2)

             0.000E+00   0.000E+00   9.696E+20   7.717E+19   7.960E+22


              N2 CONT    MOL SCAT       AER 1       AER 2       AER 3       AER 4     CIRRUS      MEAN RH
                                                                                                  (PRCNT)

             3.692E+00   8.049E+00   0.000E+00   0.000E+00   0.000E+00   0.000E+00   0.000E+00        0.00


                 H2O        O3          CO2         CO          CH4         N2O          O2
               (                                        ATM CM                            )

             3.581E+03   0.000E+00   0.000E+00   0.000E+00   0.000E+00   0.000E+00   1.681E+05

                 NH3        NO          NO2         SO2
                 (               ATM CM               )

             0.000E+00   0.000E+00   0.000E+00   0.000E+00

             CFC-11      CFC-12      CFC-13      CFC-14      CFC-22      CFC-113     CFC-114
                 (                                      ATM CM                            )

             0.000E+00   0.000E+00   0.000E+00   0.000E+00   0.000E+00   0.000E+00   0.000E+00

             CFC-115     CLONO2       HNO4       CHCL2F       CCL4        N2O5  
                 (                                      ATM CM                            )

             0.000E+00   0.000E+00   0.000E+00   0.000E+00   0.000E+00   0.000E+00
  iv           -5
  iv            0
1                                             RADIANCE(WATTS/CM2-STER-XXX)
0  FREQ   WAVLEN    PATH THERMAL      SURFACE EMISSION    SURFACE REFLECTED     TOTAL RADIANCE   INTEGRAL    TOTAL
  (CM-1) (MICRN)    (CM-1)   (MICRN)    (CM-1)   (MICRN)    (CM-1)   (MICRN)    (CM-1)   (MICRN)    (CM-1)   TRANS

      2. 4999.998  8.73E-10  3.49E-13  3.23E-10  1.29E-13  0.00E+00  0.00E+00  1.20E-09  4.78E-13  1.20E-09  0.29010
      4. 2500.000  3.15E-09  5.04E-12  8.42E-10  1.35E-12  0.00E+00  0.00E+00  3.99E-09  6.39E-12  9.18E-09  0.22119
      6. 1666.666  7.77E-09  2.80E-11  7.97E-10  2.87E-12  0.00E+00  0.00E+00  8.57E-09  3.09E-11  2.63E-08  0.11286
      8. 1250.000  1.43E-08  9.14E-11  6.34E-10  4.06E-12  0.00E+00  0.00E+00  1.49E-08  9.55E-11  5.62E-08  0.04514
     10. 1000.000  2.23E-08  2.23E-10  2.45E-10  2.45E-12  0.00E+00  0.00E+00  2.25E-08  2.25E-10  1.01E-07  0.01380
     12.  833.333  3.09E-08  4.45E-10  1.14E-11  1.65E-13  0.00E+00  0.00E+00  3.09E-08  4.45E-10  1.63E-07  0.00047
     14.  714.286  4.05E-08  7.94E-10  1.12E-14  2.20E-16  0.00E+00  0.00E+00  4.05E-08  7.94E-10  2.44E-07  0.00000
     16.  625.000  5.15E-08  1.32E-09  1.63E-17  4.17E-19  0.00E+00  0.00E+00  5.15E-08  1.32E-09  3.47E-07  0.00000
     18.  555.555  6.20E-08  2.01E-09  5.20E-17  1.69E-18  0.00E+00  0.00E+00  6.20E-08  2.01E-09  4.71E-07  0.00000
     20.  500.000  7.74E-08  3.10E-09  5.20E-17  2.08E-18  0.00E+00  0.00E+00  7.74E-08  3.10E-09  6.26E-07  0.00000
     22.  454.545  9.68E-08  4.68E-09  1.85E-25  8.95E-27  0.00E+00  0.00E+00  9.68E-08  4.68E-09  8.19E-07  0.00000
     24.  416.667  1.10E-07  6.33E-09  3.24E-24  1.86E-25  0.00E+00  0.00E+00  1.10E-07  6.33E-09  1.04E-06  0.00000
     26.  384.615  1.27E-07  8.58E-09  3.17E-24  2.14E-25  0.00E+00  0.00E+00  1.27E-07  8.58E-09  1.29E-06  0.00000
     28.  357.143  1.52E-07  1.20E-08  2.90E-29  2.27E-30  0.00E+00  0.00E+00  1.52E-07  1.20E-08  1.60E-06  0.00000
     30.  333.333  1.73E-07  1.55E-08  1.58E-29  1.42E-30  0.00E+00  0.00E+00  1.73E-07  1.55E-08  1.94E-06  0.00000
     32.  312.500  1.87E-07  1.92E-08  3.24E-41  3.32E-42  0.00E+00  0.00E+00  1.87E-07  1.92E-08  2.32E-06  0.00000
     34.  294.118  2.08E-07  2.41E-08  0.00E+00  0.00E+00  0.00E+00  0.00E+00  2.08E-07  2.41E-08  2.73E-06  0.00000
     36.  277.778  2.23E-07  2.88E-08  0.00E+00  0.00E+00  0.00E+00  0.00E+00  2.23E-07  2.88E-08  3.18E-06  0.00000
     38.  263.158  2.37E-07  3.42E-08  0.00E+00  0.00E+00  0.00E+00  0.00E+00  2.37E-07  3.42E-08  3.65E-06  0.00000
     40.  250.000  2.66E-07  4.26E-08  0.00E+00  0.00E+00  0.00E+00  0.00E+00  2.66E-07  4.26E-08  4.18E-06  0.00000
     42.  238.095  3.07E-07  5.42E-08  0.00E+00  0.00E+00  0.00E+00  0.00E+00  3.07E-07  5.42E-08  4.80E-06  0.00000
     44.  227.273  3.44E-07  6.65E-08  0.00E+00  0.00E+00  0.00E+00  0.00E+00  3.44E-07  6.65E-08  5.49E-06  0.00000
     46.  217.391  3.64E-07  7.71E-08  0.00E+00  0.00E+00  0.00E+00  0.00E+00  3.64E-07  7.71E-08  6.21E-06  0.00000
     48.  208.333  3.90E-07  8.98E-08  0.00E+00  0.00E+00  0.00E+00  0.00E+00  3.90E-07  8.98E-08  6.99E-06  0.00000
     50.  200.000  4.31E-07  1.08E-07  0.00E+00  0.00E+00  0.00E+00  0.00E+00  4.31E-07  1.08E-07  7.86E-06  0.00000
     52.  192.308  4.53E-07  1.23E-07  0.00E+00  0.00E+00  0.00E+00  0.00E+00  4.53E-07  1.23E-07  8.76E-06  0.00000
     54.  185.185  4.61E-07  1.34E-07  0.00E+00  0.00E+00  0.00E+00  0.00E+00  4.61E-07  1.34E-07  9.69E-06  0.00000
     56.  178.571  4.74E-07  1.48E-07  0.00E+00  0.00E+00  0.00E+00  0.00E+00  4.74E-07  1.48E-07  1.06E-05  0.00000
     58.  172.414  5.16E-07  1.73E-07  0.00E+00  0.00E+00  0.00E+00  0.00E+00  5.16E-07  1.73E-07  1.17E-05  0.00000
     60.  166.667  5.64E-07  2.03E-07  0.00E+00  0.00E+00  0.00E+00  0.00E+00  5.64E-07  2.03E-07  1.28E-05  0.00000
     62.  161.290  6.00E-07  2.31E-07  0.00E+00  0.00E+00  0.00E+00  0.00E+00  6.00E-07  2.31E-07  1.40E-05  0.00000
     64.  156.250  6.38E-07  2.61E-07  0.00E+00  0.00E+00  0.00E+00  0.00E+00  6.38E-07  2.61E-07  1.53E-05  0.00000
     66.  151.515  6.93E-07  3.02E-07  0.00E+00  0.00E+00  0.00E+00  0.00E+00  6.93E-07  3.02E-07  1.67E-05  0.00000
     68.  147.059  7.18E-07  3.32E-07  0.00E+00  0.00E+00  0.00E+00  0.00E+00  7.18E-07  3.32E-07  1.81E-05  0.00000
     70.  142.857  7.50E-07  3.68E-07  0.00E+00  0.00E+00  0.00E+00  0.00E+00  7.50E-07  3.68E-07  1.96E-05  0.00000
     72.  138.889  7.61E-07  3.95E-07  0.00E+00  0.00E+00  0.00E+00  0.00E+00  7.61E-07  3.95E-07  2.11E-05  0.00000
     74.  135.135  7.86E-07  4.30E-07  0.00E+00  0.00E+00  0.00E+00  0.00E+00  7.86E-07  4.30E-07  2.27E-05  0.00000
     76.  131.579  8.43E-07  4.87E-07  0.00E+00  0.00E+00  0.00E+00  0.00E+00  8.43E-07  4.87E-07  2.44E-05  0.00000
     78.  128.205  8.83E-07  5.37E-07  0.00E+00  0.00E+00  0.00E+00  0.00E+00  8.83E-07  5.37E-07  2.61E-05  0.00000
     80.  125.000  9.12E-07  5.83E-07  0.00E+00  0.00E+00  0.00E+00  0.00E+00  9.12E-07  5.83E-07  2.80E-05  0.00000
     82.  121.951  9.69E-07  6.52E-07  0.00E+00  0.00E+00  0.00E+00  0.00E+00  9.69E-07  6.52E-07  2.99E-05  0.00000
     84.  119.048  1.04E-06  7.37E-07  0.00E+00  0.00E+00  0.00E+00  0.00E+00  1.04E-06  7.37E-07  3.20E-05  0.00000
     86.  116.279  1.07E-06  7.92E-07  0.00E+00  0.00E+00  0.00E+00  0.00E+00  1.07E-06  7.92E-07  3.41E-05  0.00000
     88.  113.636  1.06E-06  8.18E-07  0.00E+00  0.00E+00  0.00E+00  0.00E+00  1.06E-06  8.18E-07  3.62E-05  0.00000
     90.  111.111  1.11E-06  8.98E-07  0.00E+00  0.00E+00  0.00E+00  0.00E+00  1.11E-06  8.98E-07  3.85E-05  0.00000
     92.  108.696  1.15E-06  9.71E-07  0.00E+00  0.00E+00  0.00E+00  0.00E+00  1.15E-06  9.71E-07  4.08E-05  0.00000
     94.  106.383  1.20E-06  1.06E-06  0.00E+00  0.00E+00  0.00E+00  0.00E+00  1.20E-06  1.06E-06  4.32E-05  0.00000
     96.  104.167  1.27E-06  1.17E-06  0.00E+00  0.00E+00  0.00E+00  0.00E+00  1.27E-06  1.17E-06  4.57E-05  0.00000
     98.  102.041  1.29E-06  1.24E-06  0.00E+00  0.00E+00  0.00E+00  0.00E+00  1.29E-06  1.24E-06  4.83E-05  0.00000
    100.  100.000  1.28E-06  1.28E-06  0.00E+00  0.00E+00  0.00E+00  0.00E+00  1.28E-06  1.28E-06  5.08E-05  0.00000
  iv          105
1                                             RADIANCE(WATTS/CM2-STER-XXX)
0  FREQ   WAVLEN    PATH THERMAL      SURFACE EMISSION    SURFACE REFLECTED     TOTAL RADIANCE   INTEGRAL    TOTAL
  (CM-1) (MICRN)    (CM-1)   (MICRN)    (CM-1)   (MICRN)    (CM-1)   (MICRN)    (CM-1)   (MICRN)    (CM-1)   TRANS

    102.   98.039  1.36E-06  1.42E-06  0.00E+00  0.00E+00  0.00E+00  0.00E+00  1.36E-06  1.42E-06  5.36E-05  0.00000
    104.   96.154  1.41E-06  1.52E-06  0.00E+00  0.00E+00  0.00E+00  0.00E+00  1.41E-06  1.52E-06  5.64E-05  0.00000
    106.   94.340  1.44E-06  1.62E-06  0.00E+00  0.00E+00  0.00E+00  0.00E+00  1.44E-06  1.62E-06  5.93E-05  0.00000
    108.   92.593  1.56E-06  1.82E-06  0.00E+00  0.00E+00  0.00E+00  0.00E+00  1.56E-06  1.82E-06  6.24E-05  0.00000
    110.   90.909  1.60E-06  1.94E-06  0.00E+00  0.00E+00  0.00E+00  0.00E+00  1.60E-06  1.94E-06  6.56E-05  0.00000
    112.   89.286  1.65E-06  2.07E-06  0.00E+00  0.00E+00  0.00E+00  0.00E+00  1.65E-06  2.07E-06  6.89E-05  0.00000
    114.   87.719  1.78E-06  2.32E-06  0.00E+00  0.00E+00  0.00E+00  0.00E+00  1.78E-06  2.32E-06  7.25E-05  0.00000
    116.   86.207  1.82E-06  2.45E-06  0.00E+00  0.00E+00  0.00E+00  0.00E+00  1.82E-06  2.45E-06  7.61E-05  0.00000
    118.   84.746  1.80E-06  2.51E-06  0.00E+00  0.00E+00  0.00E+00  0.00E+00  1.80E-06  2.51E-06  7.97E-05  0.00000
    120.   83.333  1.78E-06  2.56E-06  0.00E+00  0.00E+00  0.00E+00  0.00E+00  1.78E-06  2.56E-06  8.33E-05  0.00000
    122.   81.967  1.80E-06  2.68E-06  0.00E+00  0.00E+00  0.00E+00  0.00E+00  1.80E-06  2.68E-06  8.69E-05  0.00000
    124.   80.645  1.92E-06  2.95E-06  0.00E+00  0.00E+00  0.00E+00  0.00E+00  1.92E-06  2.95E-06  9.07E-05  0.00000
    126.   79.365  1.92E-06  3.05E-06  0.00E+00  0.00E+00  0.00E+00  0.00E+00  1.92E-06  3.05E-06  9.46E-05  0.00000
    128.   78.125  1.99E-06  3.26E-06  0.00E+00  0.00E+00  0.00E+00  0.00E+00  1.99E-06  3.26E-06  9.85E-05  0.00000
    130.   76.923  2.09E-06  3.53E-06  0.00E+00  0.00E+00  0.00E+00  0.00E+00  2.09E-06  3.53E-06  1.03E-04  0.00000
    132.   75.758  2.04E-06  3.55E-06  0.00E+00  0.00E+00  0.00E+00  0.00E+00  2.04E-06  3.55E-06  1.07E-04  0.00000
    134.   74.627  2.14E-06  3.85E-06  0.00E+00  0.00E+00  0.00E+00  0.00E+00  2.14E-06  3.85E-06  1.11E-04  0.00000
    136.   73.529  2.29E-06  4.24E-06  0.00E+00  0.00E+00  0.00E+00  0.00E+00  2.29E-06  4.24E-06  1.16E-04  0.00000
    138.   72.464  2.25E-06  4.28E-06  0.00E+00  0.00E+00  0.00E+00  0.00E+00  2.25E-06  4.28E-06  1.20E-04  0.00000
    140.   71.429  2.22E-06  4.35E-06  0.00E+00  0.00E+00  0.00E+00  0.00E+00  2.22E-06  4.35E-06  1.25E-04  0.00000
    142.   70.423  2.40E-06  4.85E-06  0.00E+00  0.00E+00  0.00E+00  0.00E+00  2.40E-06  4.85E-06  1.29E-04  0.00000
    144.   69.444  2.56E-06  5.32E-06  0.00E+00  0.00E+00  0.00E+00  0.00E+00  2.56E-06  5.32E-06  1.35E-04  0.00000
    146.   68.493  2.59E-06  5.51E-06  0.00E+00  0.00E+00  0.00E+00  0.00E+00  2.59E-06  5.51E-06  1.40E-04  0.00000
    148.   67.568  2.49E-06  5.44E-06  0.00E+00  0.00E+00  0.00E+00  0.00E+00  2.49E-06  5.44E-06  1.45E-04  0.00000
    150.   66.667  2.38E-06  5.35E-06  0.00E+00  0.00E+00  0.00E+00  0.00E+00  2.38E-06  5.35E-06  1.49E-04  0.00000
    152.   65.789  2.46E-06  5.68E-06  0.00E+00  0.00E+00  0.00E+00  0.00E+00  2.46E-06  5.68E-06  1.54E-04  0.00000
    154.   64.935  2.62E-06  6.21E-06  0.00E+00  0.00E+00  0.00E+00  0.00E+00  2.62E-06  6.21E-06  1.60E-04  0.00000
    156.   64.103  2.71E-06  6.60E-06  0.00E+00  0.00E+00  0.00E+00  0.00E+00  2.71E-06  6.60E-06  1.65E-04  0.00000
    158.   63.291  2.74E-06  6.84E-06  0.00E+00  0.00E+00  0.00E+00  0.00E+00  2.74E-06  6.84E-06  1.70E-04  0.00000
    160.   62.500  2.91E-06  7.45E-06  0.00E+00  0.00E+00  0.00E+00  0.00E+00  2.91E-06  7.45E-06  1.76E-04  0.00000
    162.   61.728  3.04E-06  7.98E-06  0.00E+00  0.00E+00  0.00E+00  0.00E+00  3.04E-06  7.98E-06  1.82E-04  0.00000
    164.   60.976  3.11E-06  8.36E-06  0.00E+00  0.00E+00  0.00E+00  0.00E+00  3.11E-06  8.36E-06  1.89E-04  0.00000
    166.   60.241  3.04E-06  8.39E-06  0.00E+00  0.00E+00  0.00E+00  0.00E+00  3.04E-06  8.39E-06  1.95E-04  0.00000
    168.   59.524  3.00E-06  8.46E-06  0.00E+00  0.00E+00  0.00E+00  0.00E+00  3.00E-06  8.46E-06  2.01E-04  0.00000
    170.   58.824  2.94E-06  8.50E-06  0.00E+00  0.00E+00  0.00E+00  0.00E+00  2.94E-06  8.50E-06  2.07E-04  0.00000
    172.   58.140  3.03E-06  8.95E-06  0.00E+00  0.00E+00  0.00E+00  0.00E+00  3.03E-06  8.95E-06  2.13E-04  0.00000
    174.   57.471  3.11E-06  9.42E-06  0.00E+00  0.00E+00  0.00E+00  0.00E+00  3.11E-06  9.42E-06  2.19E-04  0.00000
    176.   56.818  3.14E-06  9.71E-06  0.00E+00  0.00E+00  0.00E+00  0.00E+00  3.14E-06  9.71E-06  2.25E-04  0.00000
    178.   56.180  3.18E-06  1.01E-05  0.00E+00  0.00E+00  0.00E+00  0.00E+00  3.18E-06  1.01E-05  2.31E-04  0.00000
    180.   55.556  3.35E-06  1.09E-05  0.00E+00  0.00E+00  0.00E+00  0.00E+00  3.35E-06  1.09E-05  2.38E-04  0.00000
    182.   54.945  3.45E-06  1.14E-05  0.00E+00  0.00E+00  0.00E+00  0.00E+00  3.45E-06  1.14E-05  2.45E-04  0.00000
    184.   54.348  3.63E-06  1.23E-05  0.00E+00  0.00E+00  0.00E+00  0.00E+00  3.63E-06  1.23E-05  2.52E-04  0.00000
    186.   53.763  3.67E-06  1.27E-05  0.00E+00  0.00E+00  0.00E+00  0.00E+00  3.67E-06  1.27E-05  2.60E-04  0.00000
    188.   53.191  3.55E-06  1.26E-05  0.00E+00  0.00E+00  0.00E+00  0.00E+00  3.55E-06  1.26E-05  2.67E-04  0.00000
    190.   52.632  3.74E-06  1.35E-05  0.00E+00  0.00E+00  0.00E+00  0.00E+00  3.74E-06  1.35E-05  2.74E-04  0.00000
    192.   52.083  3.83E-06  1.41E-05  0.00E+00  0.00E+00  0.00E+00  0.00E+00  3.83E-06  1.41E-05  2.82E-04  0.00000
    194.   51.546  3.76E-06  1.41E-05  0.00E+00  0.00E+00  0.00E+00  0.00E+00  3.76E-06  1.41E-05  2.89E-04  0.00000
    196.   51.020  3.84E-06  1.48E-05  0.00E+00  0.00E+00  0.00E+00  0.00E+00  3.84E-06  1.48E-05  2.97E-04  0.00000
    198.   50.505  3.92E-06  1.54E-05  0.00E+00  0.00E+00  0.00E+00  0.00E+00  3.92E-06  1.54E-05  3.05E-04  0.00000
    200.   50.000  3.85E-06  1.54E-05  0.00E+00  0.00E+00  0.00E+00  0.00E+00  3.85E-06  1.54E-05  3.13E-04  0.00000
  iv          205
1                                             RADIANCE(WATTS/CM2-STER-XXX)
0  FREQ   WAVLEN    PATH THERMAL      SURFACE EMISSION    SURFACE REFLECTED     TOTAL RADIANCE   INTEGRAL    TOTAL
  (CM-1) (MICRN)    (CM-1)   (MICRN)    (CM-1)   (MICRN)    (CM-1)   (MICRN)    (CM-1)   (MICRN)    (CM-1)   TRANS

    202.   49.505  3.61E-06  1.47E-05  0.00E+00  0.00E+00  0.00E+00  0.00E+00  3.61E-06  1.47E-05  3.20E-04  0.00000
    204.   49.020  3.78E-06  1.57E-05  0.00E+00  0.00E+00  0.00E+00  0.00E+00  3.78E-06  1.57E-05  3.27E-04  0.00000
    206.   48.544  3.98E-06  1.69E-05  0.00E+00  0.00E+00  0.00E+00  0.00E+00  3.98E-06  1.69E-05  3.35E-04  0.00000
    208.   48.077  3.87E-06  1.67E-05  0.00E+00  0.00E+00  0.00E+00  0.00E+00  3.87E-06  1.67E-05  3.43E-04  0.00000
    210.   47.619  4.08E-06  1.80E-05  0.00E+00  0.00E+00  0.00E+00  0.00E+00  4.08E-06  1.80E-05  3.51E-04  0.00000
    212.   47.170  4.22E-06  1.90E-05  0.00E+00  0.00E+00  0.00E+00  0.00E+00  4.22E-06  1.90E-05  3.60E-04  0.00000
    214.   46.729  4.17E-06  1.91E-05  0.00E+00  0.00E+00  0.00E+00  0.00E+00  4.17E-06  1.91E-05  3.68E-04  0.00000
    216.   46.296  4.42E-06  2.06E-05  0.00E+00  0.00E+00  0.00E+00  0.00E+00  4.42E-06  2.06E-05  3.77E-04  0.00000
    218.   45.872  4.62E-06  2.20E-05  0.00E+00  0.00E+00  0.00E+00  0.00E+00  4.62E-06  2.20E-05  3.86E-04  0.00000
    220.   45.455  4.47E-06  2.16E-05  0.00E+00  0.00E+00  0.00E+00  0.00E+00  4.47E-06  2.16E-05  3.95E-04  0.00000
    222.   45.045  4.24E-06  2.09E-05  0.00E+00  0.00E+00  0.00E+00  0.00E+00  4.24E-06  2.09E-05  4.04E-04  0.00000
    224.   44.643  4.31E-06  2.16E-05  0.00E+00  0.00E+00  0.00E+00  0.00E+00  4.31E-06  2.16E-05  4.12E-04  0.00000
    226.   44.248  4.21E-06  2.15E-05  0.00E+00  0.00E+00  0.00E+00  0.00E+00  4.21E-06  2.15E-05  4.21E-04  0.00000
    228.   43.860  4.26E-06  2.21E-05  0.00E+00  0.00E+00  0.00E+00  0.00E+00  4.26E-06  2.21E-05  4.29E-04  0.00000
    230.   43.478  4.63E-06  2.45E-05  0.00E+00  0.00E+00  0.00E+00  0.00E+00  4.63E-06  2.45E-05  4.38E-04  0.00000
    232.   43.103  4.82E-06  2.59E-05  0.00E+00  0.00E+00  0.00E+00  0.00E+00  4.82E-06  2.59E-05  4.48E-04  0.00000
    234.   42.735  5.02E-06  2.75E-05  0.00E+00  0.00E+00  0.00E+00  0.00E+00  5.02E-06  2.75E-05  4.58E-04  0.00000
    236.   42.373  5.20E-06  2.90E-05  0.00E+00  0.00E+00  0.00E+00  0.00E+00  5.20E-06  2.90E-05  4.69E-04  0.00000
    238.   42.017  5.28E-06  2.99E-05  0.00E+00  0.00E+00  0.00E+00  0.00E+00  5.28E-06  2.99E-05  4.79E-04  0.00000
    240.   41.667  5.32E-06  3.07E-05  0.00E+00  0.00E+00  0.00E+00  0.00E+00  5.32E-06  3.07E-05  4.90E-04  0.00000
    242.   41.322  5.27E-06  3.09E-05  0.00E+00  0.00E+00  0.00E+00  0.00E+00  5.27E-06  3.09E-05  5.00E-04  0.00000
    244.   40.984  4.92E-06  2.93E-05  0.00E+00  0.00E+00  0.00E+00  0.00E+00  4.92E-06  2.93E-05  5.10E-04  0.00000
    246.   40.650  4.64E-06  2.81E-05  0.00E+00  0.00E+00  0.00E+00  0.00E+00  4.64E-06  2.81E-05  5.19E-04  0.00000
    248.   40.323  4.76E-06  2.93E-05  0.00E+00  0.00E+00  0.00E+00  0.00E+00  4.76E-06  2.93E-05  5.29E-04  0.00000
    250.   40.000  5.10E-06  3.19E-05  0.00E+00  0.00E+00  0.00E+00  0.00E+00  5.10E-06  3.19E-05  5.39E-04  0.00000
    252.   39.683  5.02E-06  3.19E-05  0.00E+00  0.00E+00  0.00E+00  0.00E+00  5.02E-06  3.19E-05  5.49E-04  0.00000
    254.   39.370  4.83E-06  3.12E-05  0.00E+00  0.00E+00  0.00E+00  0.00E+00  4.83E-06  3.12E-05  5.59E-04  0.00000
    256.   39.063  5.26E-06  3.45E-05  0.00E+00  0.00E+00  0.00E+00  0.00E+00  5.26E-06  3.45E-05  5.69E-04  0.00000
    258.   38.760  5.66E-06  3.77E-05  0.00E+00  0.00E+00  0.00E+00  0.00E+00  5.66E-06  3.77E-05  5.81E-04  0.00000
    260.   38.462  5.85E-06  3.95E-05  0.00E+00  0.00E+00  0.00E+00  0.00E+00  5.85E-06  3.95E-05  5.92E-04  0.00000
    262.   38.168  5.88E-06  4.04E-05  0.00E+00  0.00E+00  0.00E+00  0.00E+00  5.88E-06  4.04E-05  6.04E-04  0.00000
    264.   37.879  5.79E-06  4.03E-05  0.00E+00  0.00E+00  0.00E+00  0.00E+00  5.79E-06  4.03E-05  6.16E-04  0.00000
    266.   37.594  5.59E-06  3.96E-05  0.00E+00  0.00E+00  0.00E+00  0.00E+00  5.59E-06  3.96E-05  6.27E-04  0.00000
    268.   37.313  5.84E-06  4.19E-05  0.00E+00  0.00E+00  0.00E+00  0.00E+00  5.84E-06  4.19E-05  6.39E-04  0.00000
    270.   37.037  6.12E-06  4.46E-05  0.00E+00  0.00E+00  0.00E+00  0.00E+00  6.12E-06  4.46E-05  6.51E-04  0.00000
    272.   36.765  6.12E-06  4.52E-05  0.00E+00  0.00E+00  0.00E+00  0.00E+00  6.12E-06  4.52E-05  6.63E-04  0.00000
    274.   36.496  5.98E-06  4.49E-05  0.00E+00  0.00E+00  0.00E+00  0.00E+00  5.98E-06  4.49E-05  6.75E-04  0.00000
    276.   36.232  5.57E-06  4.24E-05  0.00E+00  0.00E+00  0.00E+00  0.00E+00  5.57E-06  4.24E-05  6.86E-04  0.00000
    278.   35.971  5.25E-06  4.06E-05  0.00E+00  0.00E+00  0.00E+00  0.00E+00  5.25E-06  4.06E-05  6.97E-04  0.00000
    280.   35.714  5.30E-06  4.16E-05  0.00E+00  0.00E+00  0.00E+00  0.00E+00  5.30E-06  4.16E-05  7.07E-04  0.00000
    282.   35.461  5.48E-06  4.36E-05  0.00E+00  0.00E+00  0.00E+00  0.00E+00  5.48E-06  4.36E-05  7.18E-04  0.00000
    284.   35.211  5.98E-06  4.82E-05  0.00E+00  0.00E+00  0.00E+00  0.00E+00  5.98E-06  4.82E-05  7.30E-04  0.00000
    286.   34.965  6.30E-06  5.15E-05  0.00E+00  0.00E+00  0.00E+00  0.00E+00  6.30E-06  5.15E-05  7.43E-04  0.00000
    288.   34.722  6.03E-06  5.00E-05  0.00E+00  0.00E+00  0.00E+00  0.00E+00  6.03E-06  5.00E-05  7.55E-04  0.00000
    290.   34.483  5.92E-06  4.98E-05  0.00E+00  0.00E+00  0.00E+00  0.00E+00  5.92E-06  4.98E-05  7.67E-04  0.00000
    292.   34.247  6.46E-06  5.50E-05  0.00E+00  0.00E+00  0.00E+00  0.00E+00  6.46E-06  5.50E-05  7.80E-04  0.00000
    294.   34.014  6.75E-06  5.83E-05  0.00E+00  0.00E+00  0.00E+00  0.00E+00  6.75E-06  5.83E-05  7.93E-04  0.00000
    296.   33.784  6.71E-06  5.88E-05  0.00E+00  0.00E+00  0.00E+00  0.00E+00  6.71E-06  5.88E-05  8.06E-04  0.00000
    298.   33.557  6.57E-06  5.83E-05  0.00E+00  0.00E+00  0.00E+00  0.00E+00  6.57E-06  5.83E-05  8.20E-04  0.00000
    300.   33.333  6.36E-06  5.72E-05  0.00E+00  0.00E+00  0.00E+00  0.00E+00  6.36E-06  5.72E-05  8.32E-04  0.00000
  iv          305
1                                             RADIANCE(WATTS/CM2-STER-XXX)
0  FREQ   WAVLEN    PATH THERMAL      SURFACE EMISSION    SURFACE REFLECTED     TOTAL RADIANCE   INTEGRAL    TOTAL
  (CM-1) (MICRN)    (CM-1)   (MICRN)    (CM-1)   (MICRN)    (CM-1)   (MICRN)    (CM-1)   (MICRN)    (CM-1)   TRANS

    302.   33.113  5.86E-06  5.34E-05  0.00E+00  0.00E+00  0.00E+00  0.00E+00  5.86E-06  5.34E-05  8.44E-04  0.00000
    304.   32.895  6.05E-06  5.59E-05  0.00E+00  0.00E+00  0.00E+00  0.00E+00  6.05E-06  5.59E-05  8.56E-04  0.00000
    306.   32.680  6.75E-06  6.32E-05  0.00E+00  0.00E+00  0.00E+00  0.00E+00  6.75E-06  6.32E-05  8.70E-04  0.00000
    308.   32.468  7.00E-06  6.64E-05  0.00E+00  0.00E+00  0.00E+00  0.00E+00  7.00E-06  6.64E-05  8.84E-04  0.00000
    310.   32.258  7.11E-06  6.83E-05  0.00E+00  0.00E+00  0.00E+00  0.00E+00  7.11E-06  6.83E-05  8.98E-04  0.00000
    312.   32.051  7.18E-06  6.99E-05  0.00E+00  0.00E+00  0.00E+00  0.00E+00  7.18E-06  6.99E-05  9.12E-04  0.00000
    314.   31.847  6.85E-06  6.76E-05  0.00E+00  0.00E+00  0.00E+00  0.00E+00  6.85E-06  6.76E-05  9.26E-04  0.00000
    316.   31.646  6.88E-06  6.87E-05  0.00E+00  0.00E+00  0.00E+00  0.00E+00  6.88E-06  6.87E-05  9.40E-04  0.00000
    318.   31.447  7.36E-06  7.44E-05  0.00E+00  0.00E+00  0.00E+00  0.00E+00  7.36E-06  7.44E-05  9.54E-04  0.00000
    320.   31.250  7.33E-06  7.51E-05  0.00E+00  0.00E+00  0.00E+00  0.00E+00  7.33E-06  7.51E-05  9.69E-04  0.00000
    322.   31.056  6.86E-06  7.11E-05  0.00E+00  0.00E+00  0.00E+00  0.00E+00  6.86E-06  7.11E-05  9.83E-04  0.00000
    324.   30.864  6.46E-06  6.78E-05  0.00E+00  0.00E+00  0.00E+00  0.00E+00  6.46E-06  6.78E-05  9.96E-04  0.00000
    326.   30.675  6.66E-06  7.08E-05  0.00E+00  0.00E+00  0.00E+00  0.00E+00  6.66E-06  7.08E-05  1.01E-03  0.00000
    328.   30.488  6.58E-06  7.08E-05  0.00E+00  0.00E+00  0.00E+00  0.00E+00  6.58E-06  7.08E-05  1.02E-03  0.00000
    330.   30.303  7.22E-06  7.86E-05  0.00E+00  0.00E+00  0.00E+00  0.00E+00  7.22E-06  7.86E-05  1.04E-03  0.00000
    332.   30.120  7.58E-06  8.35E-05  0.00E+00  0.00E+00  0.00E+00  0.00E+00  7.58E-06  8.35E-05  1.05E-03  0.00000
    334.   29.940  7.07E-06  7.89E-05  0.00E+00  0.00E+00  0.00E+00  0.00E+00  7.07E-06  7.89E-05  1.07E-03  0.00000
    336.   29.762  6.99E-06  7.90E-05  0.00E+00  0.00E+00  0.00E+00  0.00E+00  6.99E-06  7.90E-05  1.08E-03  0.00000
    338.   29.586  7.65E-06  8.74E-05  0.00E+00  0.00E+00  0.00E+00  0.00E+00  7.65E-06  8.74E-05  1.10E-03  0.00000
    340.   29.412  7.46E-06  8.62E-05  0.00E+00  0.00E+00  0.00E+00  0.00E+00  7.46E-06  8.62E-05  1.11E-03  0.00000
    342.   29.240  7.38E-06  8.63E-05  0.00E+00  0.00E+00  0.00E+00  0.00E+00  7.38E-06  8.63E-05  1.12E-03  0.00000
    344.   29.070  7.69E-06  9.10E-05  0.00E+00  0.00E+00  0.00E+00  0.00E+00  7.69E-06  9.10E-05  1.14E-03  0.00000
    346.   28.902  7.84E-06  9.39E-05  0.00E+00  0.00E+00  0.00E+00  0.00E+00  7.84E-06  9.39E-05  1.16E-03  0.00000
    348.   28.736  7.60E-06  9.21E-05  0.00E+00  0.00E+00  0.00E+00  0.00E+00  7.60E-06  9.21E-05  1.17E-03  0.00000
    350.   28.571  7.04E-06  8.63E-05  0.00E+00  0.00E+00  0.00E+00  0.00E+00  7.04E-06  8.63E-05  1.19E-03  0.00000
    352.   28.409  6.95E-06  8.61E-05  0.00E+00  0.00E+00  0.00E+00  0.00E+00  6.95E-06  8.61E-05  1.20E-03  0.00000
    354.   28.249  7.05E-06  8.84E-05  0.00E+00  0.00E+00  0.00E+00  0.00E+00  7.05E-06  8.84E-05  1.21E-03  0.00000
    356.   28.090  7.14E-06  9.05E-05  0.00E+00  0.00E+00  0.00E+00  0.00E+00  7.14E-06  9.05E-05  1.23E-03  0.00000
    358.   27.933  7.43E-06  9.53E-05  0.00E+00  0.00E+00  0.00E+00  0.00E+00  7.43E-06  9.53E-05  1.24E-03  0.00000
    360.   27.778  8.24E-06  1.07E-04  3.73E-41  4.84E-40  0.00E+00  0.00E+00  8.24E-06  1.07E-04  1.26E-03  0.00000
    362.   27.624  8.59E-06  1.13E-04  4.15E-35  5.44E-34  0.00E+00  0.00E+00  8.59E-06  1.13E-04  1.28E-03  0.00000
    364.   27.473  8.74E-06  1.16E-04  4.86E-33  6.45E-32  0.00E+00  0.00E+00  8.74E-06  1.16E-04  1.29E-03  0.00000
    366.   27.322  8.84E-06  1.18E-04  1.30E-32  1.74E-31  0.00E+00  0.00E+00  8.84E-06  1.18E-04  1.31E-03  0.00000
    368.   27.174  8.38E-06  1.13E-04  4.16E-33  5.64E-32  0.00E+00  0.00E+00  8.38E-06  1.13E-04  1.33E-03  0.00000
    370.   27.027  7.94E-06  1.09E-04  2.20E-43  3.01E-42  0.00E+00  0.00E+00  7.94E-06  1.09E-04  1.34E-03  0.00000
    372.   26.882  8.27E-06  1.14E-04  1.40E-45  1.96E-44  0.00E+00  0.00E+00  8.27E-06  1.14E-04  1.36E-03  0.00000
    374.   26.738  7.69E-06  1.08E-04  0.00E+00  0.00E+00  0.00E+00  0.00E+00  7.69E-06  1.08E-04  1.38E-03  0.00000
    376.   26.596  7.66E-06  1.08E-04  0.00E+00  0.00E+00  0.00E+00  0.00E+00  7.66E-06  1.08E-04  1.39E-03  0.00000
    378.   26.455  8.55E-06  1.22E-04  1.17E-32  1.67E-31  0.00E+00  0.00E+00  8.55E-06  1.22E-04  1.41E-03  0.00000
    380.   26.316  9.01E-06  1.30E-04  6.11E-31  8.82E-30  0.00E+00  0.00E+00  9.01E-06  1.30E-04  1.43E-03  0.00000
    382.   26.178  8.92E-06  1.30E-04  6.33E-31  9.24E-30  0.00E+00  0.00E+00  8.92E-06  1.30E-04  1.44E-03  0.00000
    384.   26.042  8.09E-06  1.19E-04  2.28E-32  3.37E-31  0.00E+00  0.00E+00  8.09E-06  1.19E-04  1.46E-03  0.00000
    386.   25.907  8.14E-06  1.21E-04  8.11E-27  1.21E-25  0.00E+00  0.00E+00  8.14E-06  1.21E-04  1.48E-03  0.00000
    388.   25.773  9.19E-06  1.38E-04  9.82E-25  1.48E-23  0.00E+00  0.00E+00  9.19E-06  1.38E-04  1.49E-03  0.00000
    390.   25.641  9.50E-06  1.45E-04  1.72E-24  2.61E-23  0.00E+00  0.00E+00  9.50E-06  1.45E-04  1.51E-03  0.00000
    392.   25.510  9.27E-06  1.42E-04  4.90E-25  7.53E-24  0.00E+00  0.00E+00  9.27E-06  1.42E-04  1.53E-03  0.00000
    394.   25.381  8.47E-06  1.31E-04  1.46E-29  2.27E-28  0.00E+00  0.00E+00  8.47E-06  1.31E-04  1.55E-03  0.00000
    396.   25.253  7.77E-06  1.22E-04  5.84E-35  9.16E-34  0.00E+00  0.00E+00  7.77E-06  1.22E-04  1.56E-03  0.00000
    398.   25.126  7.60E-06  1.20E-04  0.00E+00  0.00E+00  0.00E+00  0.00E+00  7.60E-06  1.20E-04  1.58E-03  0.00000
    400.   25.000  8.28E-06  1.33E-04  6.87E-29  1.10E-27  0.00E+00  0.00E+00  8.28E-06  1.33E-04  1.60E-03  0.00000
  iv          405
1                                             RADIANCE(WATTS/CM2-STER-XXX)
0  FREQ   WAVLEN    PATH THERMAL      SURFACE EMISSION    SURFACE REFLECTED     TOTAL RADIANCE   INTEGRAL    TOTAL
  (CM-1) (MICRN)    (CM-1)   (MICRN)    (CM-1)   (MICRN)    (CM-1)   (MICRN)    (CM-1)   (MICRN)    (CM-1)   TRANS

    402.   24.876  9.44E-06  1.53E-04  4.28E-21  6.92E-20  0.00E+00  0.00E+00  9.44E-06  1.53E-04  1.62E-03  0.00000
    404.   24.752  9.89E-06  1.61E-04  2.48E-19  4.05E-18  0.00E+00  0.00E+00  9.89E-06  1.61E-04  1.64E-03  0.00000
    406.   24.631  1.00E-05  1.65E-04  2.46E-17  4.05E-16  0.00E+00  0.00E+00  1.00E-05  1.65E-04  1.66E-03  0.00000
    408.   24.510  1.02E-05  1.70E-04  1.01E-16  1.69E-15  0.00E+00  0.00E+00  1.02E-05  1.70E-04  1.68E-03  0.00000
    410.   24.390  1.03E-05  1.73E-04  1.28E-16  2.15E-15  0.00E+00  0.00E+00  1.03E-05  1.73E-04  1.70E-03  0.00000
    412.   24.272  1.03E-05  1.74E-04  7.08E-17  1.20E-15  0.00E+00  0.00E+00  1.03E-05  1.74E-04  1.72E-03  0.00000
    414.   24.155  1.00E-05  1.72E-04  9.39E-18  1.61E-16  0.00E+00  0.00E+00  1.00E-05  1.72E-04  1.74E-03  0.00000
    416.   24.038  9.28E-06  1.61E-04  1.24E-20  2.15E-19  0.00E+00  0.00E+00  9.28E-06  1.61E-04  1.76E-03  0.00000
    418.   23.923  8.03E-06  1.40E-04  1.18E-32  2.07E-31  0.00E+00  0.00E+00  8.03E-06  1.40E-04  1.77E-03  0.00000
    420.   23.810  8.09E-06  1.43E-04  1.40E-45  2.52E-44  0.00E+00  0.00E+00  8.09E-06  1.43E-04  1.79E-03  0.00000
    422.   23.697  8.94E-06  1.59E-04  4.84E-28  8.62E-27  0.00E+00  0.00E+00  8.94E-06  1.59E-04  1.81E-03  0.00000
    424.   23.585  9.16E-06  1.65E-04  4.10E-24  7.37E-23  0.00E+00  0.00E+00  9.16E-06  1.65E-04  1.82E-03  0.00000
    426.   23.474  9.57E-06  1.74E-04  2.05E-16  3.72E-15  0.00E+00  0.00E+00  9.57E-06  1.74E-04  1.84E-03  0.00000
    428.   23.364  1.03E-05  1.89E-04  1.21E-15  2.22E-14  0.00E+00  0.00E+00  1.03E-05  1.89E-04  1.86E-03  0.00000
    430.   23.256  1.01E-05  1.86E-04  9.98E-16  1.85E-14  0.00E+00  0.00E+00  1.01E-05  1.86E-04  1.88E-03  0.00000
    432.   23.148  1.00E-05  1.87E-04  2.85E-15  5.31E-14  0.00E+00  0.00E+00  1.00E-05  1.87E-04  1.90E-03  0.00000
    434.   23.041  1.02E-05  1.93E-04  2.68E-15  5.05E-14  0.00E+00  0.00E+00  1.02E-05  1.93E-04  1.92E-03  0.00000
    436.   22.936  9.97E-06  1.89E-04  1.97E-15  3.74E-14  0.00E+00  0.00E+00  9.97E-06  1.89E-04  1.94E-03  0.00000
    438.   22.831  1.06E-05  2.03E-04  2.14E-14  4.10E-13  0.00E+00  0.00E+00  1.06E-05  2.03E-04  1.97E-03  0.00000
    440.   22.727  1.03E-05  1.99E-04  1.88E-14  3.65E-13  0.00E+00  0.00E+00  1.03E-05  1.99E-04  1.99E-03  0.00000
    442.   22.624  9.14E-06  1.79E-04  6.70E-16  1.31E-14  0.00E+00  0.00E+00  9.14E-06  1.79E-04  2.00E-03  0.00000
    444.   22.523  9.56E-06  1.88E-04  1.43E-18  2.81E-17  0.00E+00  0.00E+00  9.56E-06  1.88E-04  2.02E-03  0.00000
    446.   22.422  1.01E-05  2.01E-04  1.10E-15  2.19E-14  0.00E+00  0.00E+00  1.01E-05  2.01E-04  2.04E-03  0.00000
    448.   22.321  1.06E-05  2.13E-04  3.16E-13  6.34E-12  0.00E+00  0.00E+00  1.06E-05  2.13E-04  2.06E-03  0.00000
    450.   22.222  1.09E-05  2.21E-04  3.32E-13  6.72E-12  0.00E+00  0.00E+00  1.09E-05  2.21E-04  2.09E-03  0.00000
    452.   22.124  1.02E-05  2.08E-04  1.03E-14  2.09E-13  0.00E+00  0.00E+00  1.02E-05  2.08E-04  2.11E-03  0.00000
    454.   22.026  1.02E-05  2.09E-04  7.31E-16  1.51E-14  0.00E+00  0.00E+00  1.02E-05  2.09E-04  2.13E-03  0.00000
    456.   21.930  9.49E-06  1.97E-04  3.01E-19  6.25E-18  0.00E+00  0.00E+00  9.49E-06  1.97E-04  2.15E-03  0.00000
    458.   21.834  8.84E-06  1.85E-04  7.46E-20  1.56E-18  0.00E+00  0.00E+00  8.84E-06  1.85E-04  2.16E-03  0.00000
    460.   21.739  1.00E-05  2.13E-04  1.91E-17  4.04E-16  0.00E+00  0.00E+00  1.00E-05  2.13E-04  2.18E-03  0.00000
    462.   21.645  1.09E-05  2.32E-04  3.05E-12  6.52E-11  0.00E+00  0.00E+00  1.09E-05  2.32E-04  2.21E-03  0.00000
    464.   21.552  1.14E-05  2.45E-04  2.47E-11  5.31E-10  0.00E+00  0.00E+00  1.14E-05  2.45E-04  2.23E-03  0.00000
    466.   21.459  1.11E-05  2.40E-04  2.08E-11  4.51E-10  0.00E+00  0.00E+00  1.11E-05  2.40E-04  2.25E-03  0.00000
    468.   21.368  1.04E-05  2.29E-04  6.58E-13  1.44E-11  0.00E+00  0.00E+00  1.04E-05  2.29E-04  2.27E-03  0.00000
    470.   21.277  1.03E-05  2.27E-04  3.58E-15  7.91E-14  0.00E+00  0.00E+00  1.03E-05  2.27E-04  2.29E-03  0.00000
    472.   21.186  9.21E-06  2.05E-04  7.57E-16  1.69E-14  0.00E+00  0.00E+00  9.21E-06  2.05E-04  2.31E-03  0.00000
    474.   21.097  9.88E-06  2.22E-04  1.37E-13  3.08E-12  0.00E+00  0.00E+00  9.88E-06  2.22E-04  2.33E-03  0.00000
    476.   21.008  1.12E-05  2.53E-04  8.10E-11  1.84E-09  0.00E+00  0.00E+00  1.12E-05  2.53E-04  2.35E-03  0.00001
    478.   20.921  1.17E-05  2.68E-04  4.71E-10  1.08E-08  0.00E+00  0.00E+00  1.17E-05  2.68E-04  2.38E-03  0.00003
    480.   20.833  1.16E-05  2.67E-04  4.03E-10  9.28E-09  0.00E+00  0.00E+00  1.16E-05  2.67E-04  2.40E-03  0.00003
    482.   20.747  1.07E-05  2.49E-04  5.02E-11  1.17E-09  0.00E+00  0.00E+00  1.07E-05  2.49E-04  2.42E-03  0.00000
    484.   20.661  1.00E-05  2.34E-04  5.28E-12  1.24E-10  0.00E+00  0.00E+00  1.00E-05  2.34E-04  2.44E-03  0.00000
    486.   20.576  1.09E-05  2.57E-04  2.23E-10  5.28E-09  0.00E+00  0.00E+00  1.09E-05  2.57E-04  2.46E-03  0.00002
    488.   20.492  1.18E-05  2.82E-04  1.26E-09  2.99E-08  0.00E+00  0.00E+00  1.18E-05  2.82E-04  2.49E-03  0.00009
    490.   20.408  1.16E-05  2.78E-04  9.41E-10  2.26E-08  0.00E+00  0.00E+00  1.16E-05  2.78E-04  2.51E-03  0.00007
    492.   20.325  1.07E-05  2.58E-04  8.19E-11  1.98E-09  0.00E+00  0.00E+00  1.07E-05  2.58E-04  2.53E-03  0.00001
    494.   20.243  1.14E-05  2.78E-04  1.97E-09  4.81E-08  0.00E+00  0.00E+00  1.14E-05  2.78E-04  2.55E-03  0.00014
    496.   20.161  1.23E-05  3.02E-04  9.58E-09  2.36E-07  0.00E+00  0.00E+00  1.23E-05  3.02E-04  2.58E-03  0.00066
    498.   20.080  1.23E-05  3.06E-04  1.01E-08  2.51E-07  0.00E+00  0.00E+00  1.23E-05  3.06E-04  2.60E-03  0.00070
    500.   20.000  1.15E-05  2.88E-04  2.50E-09  6.24E-08  0.00E+00  0.00E+00  1.15E-05  2.88E-04  2.63E-03  0.00017
  iv          505
1                                             RADIANCE(WATTS/CM2-STER-XXX)
0  FREQ   WAVLEN    PATH THERMAL      SURFACE EMISSION    SURFACE REFLECTED     TOTAL RADIANCE   INTEGRAL    TOTAL
  (CM-1) (MICRN)    (CM-1)   (MICRN)    (CM-1)   (MICRN)    (CM-1)   (MICRN)    (CM-1)   (MICRN)    (CM-1)   TRANS

    502.   19.920  1.03E-05  2.59E-04  3.43E-11  8.64E-10  0.00E+00  0.00E+00  1.03E-05  2.59E-04  2.65E-03  0.00000
    504.   19.841  1.06E-05  2.70E-04  5.87E-13  1.49E-11  0.00E+00  0.00E+00  1.06E-05  2.70E-04  2.67E-03  0.00000
    506.   19.763  1.04E-05  2.67E-04  1.07E-11  2.73E-10  0.00E+00  0.00E+00  1.04E-05  2.67E-04  2.69E-03  0.00000
    508.   19.685  1.09E-05  2.80E-04  3.04E-10  7.84E-09  0.00E+00  0.00E+00  1.09E-05  2.80E-04  2.71E-03  0.00002
    510.   19.608  1.15E-05  2.99E-04  4.68E-10  1.22E-08  0.00E+00  0.00E+00  1.15E-05  2.99E-04  2.73E-03  0.00003
    512.   19.531  1.17E-05  3.07E-04  3.15E-09  8.26E-08  0.00E+00  0.00E+00  1.17E-05  3.07E-04  2.76E-03  0.00021
    514.   19.455  1.17E-05  3.10E-04  3.05E-09  8.07E-08  0.00E+00  0.00E+00  1.18E-05  3.11E-04  2.78E-03  0.00021
    516.   19.380  1.05E-05  2.79E-04  1.19E-10  3.16E-09  0.00E+00  0.00E+00  1.05E-05  2.79E-04  2.80E-03  0.00001
    518.   19.305  9.83E-06  2.64E-04  3.45E-13  9.27E-12  0.00E+00  0.00E+00  9.83E-06  2.64E-04  2.82E-03  0.00000
    520.   19.231  1.06E-05  2.86E-04  5.21E-10  1.41E-08  0.00E+00  0.00E+00  1.06E-05  2.86E-04  2.84E-03  0.00004
    522.   19.157  1.19E-05  3.24E-04  2.69E-09  7.34E-08  0.00E+00  0.00E+00  1.19E-05  3.24E-04  2.87E-03  0.00018
    524.   19.084  1.14E-05  3.14E-04  1.73E-09  4.76E-08  0.00E+00  0.00E+00  1.14E-05  3.14E-04  2.89E-03  0.00012
    526.   19.011  1.06E-05  2.94E-04  1.26E-09  3.47E-08  0.00E+00  0.00E+00  1.06E-05  2.94E-04  2.91E-03  0.00008
    528.   18.939  1.19E-05  3.33E-04  2.13E-08  5.93E-07  0.00E+00  0.00E+00  1.20E-05  3.34E-04  2.93E-03  0.00144
    530.   18.868  1.27E-05  3.57E-04  1.04E-07  2.92E-06  0.00E+00  0.00E+00  1.28E-05  3.60E-04  2.96E-03  0.00702
    532.   18.797  1.27E-05  3.60E-04  1.35E-07  3.82E-06  0.00E+00  0.00E+00  1.29E-05  3.64E-04  2.99E-03  0.00911
    534.   18.727  1.22E-05  3.49E-04  5.25E-08  1.50E-06  0.00E+00  0.00E+00  1.23E-05  3.51E-04  3.01E-03  0.00354
    536.   18.657  1.16E-05  3.33E-04  1.96E-08  5.63E-07  0.00E+00  0.00E+00  1.16E-05  3.34E-04  3.03E-03  0.00132
    538.   18.587  1.22E-05  3.55E-04  8.86E-08  2.57E-06  0.00E+00  0.00E+00  1.23E-05  3.57E-04  3.06E-03  0.00596
    540.   18.519  1.23E-05  3.60E-04  9.44E-08  2.75E-06  0.00E+00  0.00E+00  1.24E-05  3.63E-04  3.08E-03  0.00635
    542.   18.450  1.23E-05  3.61E-04  5.04E-08  1.48E-06  0.00E+00  0.00E+00  1.23E-05  3.62E-04  3.11E-03  0.00339
    544.   18.382  1.17E-05  3.46E-04  3.37E-08  9.96E-07  0.00E+00  0.00E+00  1.17E-05  3.47E-04  3.13E-03  0.00226
    546.   18.315  1.06E-05  3.17E-04  1.30E-09  3.86E-08  0.00E+00  0.00E+00  1.06E-05  3.17E-04  3.15E-03  0.00009
    548.   18.248  1.12E-05  3.37E-04  5.46E-09  1.64E-07  0.00E+00  0.00E+00  1.12E-05  3.37E-04  3.17E-03  0.00037
    550.   18.182  1.17E-05  3.53E-04  1.80E-08  5.44E-07  0.00E+00  0.00E+00  1.17E-05  3.54E-04  3.20E-03  0.00121
    552.   18.116  1.23E-05  3.74E-04  9.27E-08  2.82E-06  0.00E+00  0.00E+00  1.24E-05  3.77E-04  3.22E-03  0.00621
    554.   18.051  1.22E-05  3.73E-04  9.20E-08  2.82E-06  0.00E+00  0.00E+00  1.23E-05  3.76E-04  3.25E-03  0.00616
    556.   17.986  1.22E-05  3.76E-04  1.11E-07  3.43E-06  0.00E+00  0.00E+00  1.23E-05  3.80E-04  3.27E-03  0.00743
    558.   17.921  1.27E-05  3.94E-04  2.62E-07  8.17E-06  0.00E+00  0.00E+00  1.29E-05  4.02E-04  3.30E-03  0.01755
    560.   17.857  1.28E-05  4.00E-04  4.27E-07  1.34E-05  0.00E+00  0.00E+00  1.32E-05  4.14E-04  3.32E-03  0.02859
    562.   17.794  1.23E-05  3.89E-04  2.99E-07  9.45E-06  0.00E+00  0.00E+00  1.26E-05  3.99E-04  3.35E-03  0.02000
    564.   17.730  1.22E-05  3.89E-04  1.05E-07  3.33E-06  0.00E+00  0.00E+00  1.23E-05  3.92E-04  3.37E-03  0.00700
    566.   17.668  1.19E-05  3.80E-04  5.96E-08  1.91E-06  0.00E+00  0.00E+00  1.19E-05  3.82E-04  3.40E-03  0.00398
    568.   17.606  1.08E-05  3.47E-04  3.63E-09  1.17E-07  0.00E+00  0.00E+00  1.08E-05  3.47E-04  3.42E-03  0.00024
    570.   17.544  1.12E-05  3.63E-04  4.26E-09  1.38E-07  0.00E+00  0.00E+00  1.12E-05  3.63E-04  3.44E-03  0.00028
    572.   17.483  1.23E-05  4.04E-04  1.16E-07  3.78E-06  0.00E+00  0.00E+00  1.25E-05  4.08E-04  3.47E-03  0.00771
    574.   17.422  1.24E-05  4.09E-04  1.77E-07  5.83E-06  0.00E+00  0.00E+00  1.26E-05  4.15E-04  3.49E-03  0.01181
    576.   17.361  1.15E-05  3.80E-04  4.91E-08  1.63E-06  0.00E+00  0.00E+00  1.15E-05  3.82E-04  3.51E-03  0.00328
    578.   17.301  1.21E-05  4.05E-04  8.53E-08  2.85E-06  0.00E+00  0.00E+00  1.22E-05  4.08E-04  3.54E-03  0.00569
    580.   17.241  1.17E-05  3.93E-04  5.81E-08  1.96E-06  0.00E+00  0.00E+00  1.17E-05  3.95E-04  3.56E-03  0.00388
    582.   17.182  1.17E-05  3.96E-04  4.83E-08  1.64E-06  0.00E+00  0.00E+00  1.17E-05  3.98E-04  3.59E-03  0.00322
    584.   17.123  1.23E-05  4.20E-04  9.81E-08  3.35E-06  0.00E+00  0.00E+00  1.24E-05  4.23E-04  3.61E-03  0.00654
    586.   17.065  1.24E-05  4.26E-04  3.34E-07  1.15E-05  0.00E+00  0.00E+00  1.27E-05  4.37E-04  3.64E-03  0.02230
    588.   17.007  1.27E-05  4.40E-04  5.22E-07  1.81E-05  0.00E+00  0.00E+00  1.32E-05  4.58E-04  3.66E-03  0.03484
    590.   16.949  1.20E-05  4.16E-04  2.16E-07  7.53E-06  0.00E+00  0.00E+00  1.22E-05  4.24E-04  3.69E-03  0.01443
    592.   16.892  1.08E-05  3.78E-04  1.27E-08  4.44E-07  0.00E+00  0.00E+00  1.08E-05  3.78E-04  3.71E-03  0.00084
    594.   16.835  1.15E-05  4.04E-04  3.95E-08  1.40E-06  0.00E+00  0.00E+00  1.15E-05  4.05E-04  3.73E-03  0.00264
    596.   16.779  1.22E-05  4.33E-04  4.01E-07  1.42E-05  0.00E+00  0.00E+00  1.26E-05  4.47E-04  3.76E-03  0.02673
    598.   16.722  1.25E-05  4.45E-04  5.69E-07  2.04E-05  0.00E+00  0.00E+00  1.30E-05  4.66E-04  3.78E-03  0.03797
    600.   16.667  1.20E-05  4.34E-04  2.81E-07  1.01E-05  0.00E+00  0.00E+00  1.23E-05  4.44E-04  3.81E-03  0.01874
  iv          605
1                                             RADIANCE(WATTS/CM2-STER-XXX)
0  FREQ   WAVLEN    PATH THERMAL      SURFACE EMISSION    SURFACE REFLECTED     TOTAL RADIANCE   INTEGRAL    TOTAL
  (CM-1) (MICRN)    (CM-1)   (MICRN)    (CM-1)   (MICRN)    (CM-1)   (MICRN)    (CM-1)   (MICRN)    (CM-1)   TRANS

    602.   16.611  1.22E-05  4.43E-04  5.83E-07  2.11E-05  0.00E+00  0.00E+00  1.28E-05  4.64E-04  3.83E-03  0.03892
    604.   16.556  1.22E-05  4.46E-04  6.89E-07  2.51E-05  0.00E+00  0.00E+00  1.29E-05  4.72E-04  3.86E-03  0.04599
    606.   16.502  1.21E-05  4.44E-04  1.30E-06  4.78E-05  0.00E+00  0.00E+00  1.34E-05  4.91E-04  3.89E-03  0.08689
    608.   16.447  1.20E-05  4.42E-04  1.63E-06  6.01E-05  0.00E+00  0.00E+00  1.36E-05  5.02E-04  3.91E-03  0.10862
    610.   16.393  1.20E-05  4.47E-04  1.49E-06  5.56E-05  0.00E+00  0.00E+00  1.35E-05  5.03E-04  3.94E-03  0.09979
    612.   16.340  1.20E-05  4.51E-04  9.84E-07  3.68E-05  0.00E+00  0.00E+00  1.30E-05  4.87E-04  3.97E-03  0.06573
    614.   16.287  1.20E-05  4.51E-04  4.46E-07  1.68E-05  0.00E+00  0.00E+00  1.24E-05  4.67E-04  3.99E-03  0.02980
    616.   16.234  1.14E-05  4.34E-04  2.24E-07  8.49E-06  0.00E+00  0.00E+00  1.17E-05  4.43E-04  4.01E-03  0.01496
    618.   16.181  1.20E-05  4.58E-04  5.47E-07  2.09E-05  0.00E+00  0.00E+00  1.25E-05  4.79E-04  4.04E-03  0.03663
    620.   16.129  1.23E-05  4.71E-04  5.82E-07  2.24E-05  0.00E+00  0.00E+00  1.28E-05  4.94E-04  4.06E-03  0.03896
    622.   16.077  1.21E-05  4.69E-04  8.61E-07  3.33E-05  0.00E+00  0.00E+00  1.30E-05  5.02E-04  4.09E-03  0.05769
    624.   16.026  1.18E-05  4.58E-04  5.98E-07  2.33E-05  0.00E+00  0.00E+00  1.24E-05  4.82E-04  4.12E-03  0.04008
    626.   15.974  1.15E-05  4.51E-04  4.70E-07  1.84E-05  0.00E+00  0.00E+00  1.20E-05  4.70E-04  4.14E-03  0.03148
    628.   15.924  1.16E-05  4.58E-04  1.77E-06  6.97E-05  0.00E+00  0.00E+00  1.34E-05  5.27E-04  4.17E-03  0.11855
    630.   15.873  1.14E-05  4.51E-04  2.33E-06  9.24E-05  0.00E+00  0.00E+00  1.37E-05  5.43E-04  4.19E-03  0.15621
    632.   15.823  1.16E-05  4.65E-04  1.37E-06  5.45E-05  0.00E+00  0.00E+00  1.30E-05  5.20E-04  4.22E-03  0.09164
    634.   15.773  1.17E-05  4.72E-04  3.07E-07  1.23E-05  0.00E+00  0.00E+00  1.21E-05  4.84E-04  4.24E-03  0.02059
    636.   15.723  1.17E-05  4.75E-04  1.33E-07  5.36E-06  0.00E+00  0.00E+00  1.19E-05  4.80E-04  4.27E-03  0.00892
    638.   15.674  1.18E-05  4.79E-04  1.61E-07  6.54E-06  0.00E+00  0.00E+00  1.19E-05  4.85E-04  4.29E-03  0.01080
    640.   15.625  1.17E-05  4.79E-04  6.38E-07  2.61E-05  0.00E+00  0.00E+00  1.23E-05  5.05E-04  4.32E-03  0.04299
    642.   15.576  1.16E-05  4.79E-04  1.20E-06  4.94E-05  0.00E+00  0.00E+00  1.28E-05  5.29E-04  4.34E-03  0.08072
    644.   15.528  1.17E-05  4.84E-04  7.30E-07  3.03E-05  0.00E+00  0.00E+00  1.24E-05  5.15E-04  4.37E-03  0.04920
    646.   15.480  1.12E-05  4.69E-04  1.67E-06  6.95E-05  0.00E+00  0.00E+00  1.29E-05  5.39E-04  4.39E-03  0.11237
    648.   15.432  1.03E-05  4.30E-04  3.46E-06  1.45E-04  0.00E+00  0.00E+00  1.37E-05  5.76E-04  4.42E-03  0.23382
    650.   15.385  1.04E-05  4.40E-04  3.24E-06  1.37E-04  0.00E+00  0.00E+00  1.36E-05  5.77E-04  4.45E-03  0.21908
    652.   15.337  1.07E-05  4.55E-04  2.62E-06  1.11E-04  0.00E+00  0.00E+00  1.33E-05  5.66E-04  4.47E-03  0.17712
    654.   15.291  1.00E-05  4.28E-04  3.69E-06  1.58E-04  0.00E+00  0.00E+00  1.37E-05  5.86E-04  4.50E-03  0.24997
    656.   15.244  1.00E-05  4.31E-04  3.76E-06  1.62E-04  0.00E+00  0.00E+00  1.38E-05  5.93E-04  4.53E-03  0.25486
    658.   15.198  1.08E-05  4.67E-04  1.85E-06  7.99E-05  0.00E+00  0.00E+00  1.26E-05  5.47E-04  4.55E-03  0.12507
    660.   15.152  1.13E-05  4.93E-04  9.86E-07  4.29E-05  0.00E+00  0.00E+00  1.23E-05  5.36E-04  4.58E-03  0.06692
    662.   15.106  1.12E-05  4.92E-04  1.72E-06  7.55E-05  0.00E+00  0.00E+00  1.29E-05  5.67E-04  4.60E-03  0.11708
    664.   15.060  1.02E-05  4.51E-04  3.03E-06  1.34E-04  0.00E+00  0.00E+00  1.33E-05  5.85E-04  4.63E-03  0.20601
    666.   15.015  1.01E-05  4.47E-04  3.52E-06  1.56E-04  0.00E+00  0.00E+00  1.36E-05  6.03E-04  4.66E-03  0.23954
    668.   14.970  1.11E-05  4.94E-04  1.52E-06  6.80E-05  0.00E+00  0.00E+00  1.26E-05  5.61E-04  4.68E-03  0.10375
    670.   14.925  1.12E-05  5.04E-04  1.16E-06  5.21E-05  0.00E+00  0.00E+00  1.24E-05  5.56E-04  4.71E-03  0.07912
    672.   14.881  1.09E-05  4.91E-04  2.09E-06  9.45E-05  0.00E+00  0.00E+00  1.30E-05  5.86E-04  4.73E-03  0.14284
    674.   14.837  9.91E-06  4.50E-04  3.47E-06  1.58E-04  0.00E+00  0.00E+00  1.34E-05  6.08E-04  4.76E-03  0.23706
    676.   14.793  9.31E-06  4.25E-04  4.41E-06  2.01E-04  0.00E+00  0.00E+00  1.37E-05  6.27E-04  4.79E-03  0.30143
    678.   14.749  1.02E-05  4.68E-04  2.97E-06  1.37E-04  0.00E+00  0.00E+00  1.32E-05  6.05E-04  4.81E-03  0.20358
    680.   14.706  9.63E-06  4.45E-04  3.64E-06  1.68E-04  0.00E+00  0.00E+00  1.33E-05  6.13E-04  4.84E-03  0.24952
    682.   14.663  8.67E-06  4.03E-04  5.10E-06  2.37E-04  0.00E+00  0.00E+00  1.38E-05  6.41E-04  4.87E-03  0.35048
    684.   14.620  8.65E-06  4.04E-04  5.11E-06  2.39E-04  0.00E+00  0.00E+00  1.38E-05  6.44E-04  4.90E-03  0.35121
    686.   14.577  9.81E-06  4.62E-04  3.31E-06  1.56E-04  0.00E+00  0.00E+00  1.31E-05  6.18E-04  4.92E-03  0.22770
    688.   14.535  1.10E-05  5.19E-04  8.22E-07  3.89E-05  0.00E+00  0.00E+00  1.18E-05  5.58E-04  4.95E-03  0.05663
    690.   14.493  1.08E-05  5.14E-04  1.38E-06  6.59E-05  0.00E+00  0.00E+00  1.22E-05  5.80E-04  4.97E-03  0.09552
    692.   14.451  1.03E-05  4.94E-04  2.58E-06  1.23E-04  0.00E+00  0.00E+00  1.29E-05  6.17E-04  5.00E-03  0.17806
    694.   14.409  1.09E-05  5.26E-04  1.20E-06  5.80E-05  0.00E+00  0.00E+00  1.21E-05  5.84E-04  5.02E-03  0.08320
    696.   14.368  1.13E-05  5.46E-04  4.48E-07  2.17E-05  0.00E+00  0.00E+00  1.17E-05  5.68E-04  5.04E-03  0.03101
    698.   14.327  1.05E-05  5.10E-04  1.62E-06  7.89E-05  0.00E+00  0.00E+00  1.21E-05  5.89E-04  5.07E-03  0.11243
    700.   14.286  8.91E-06  4.37E-04  4.37E-06  2.14E-04  0.00E+00  0.00E+00  1.33E-05  6.51E-04  5.09E-03  0.30367
  iv          705
1                                             RADIANCE(WATTS/CM2-STER-XXX)
0  FREQ   WAVLEN    PATH THERMAL      SURFACE EMISSION    SURFACE REFLECTED     TOTAL RADIANCE   INTEGRAL    TOTAL
  (CM-1) (MICRN)    (CM-1)   (MICRN)    (CM-1)   (MICRN)    (CM-1)   (MICRN)    (CM-1)   (MICRN)    (CM-1)   TRANS

    702.   14.245  9.09E-06  4.48E-04  4.24E-06  2.09E-04  0.00E+00  0.00E+00  1.33E-05  6.57E-04  5.12E-03  0.29482
    704.   14.205  1.05E-05  5.23E-04  1.57E-06  7.78E-05  0.00E+00  0.00E+00  1.21E-05  6.01E-04  5.15E-03  0.10931
    706.   14.164  1.11E-05  5.53E-04  5.08E-07  2.53E-05  0.00E+00  0.00E+00  1.16E-05  5.78E-04  5.17E-03  0.03548
    708.   14.124  1.01E-05  5.07E-04  2.46E-06  1.23E-04  0.00E+00  0.00E+00  1.26E-05  6.30E-04  5.19E-03  0.17181
    710.   14.085  8.34E-06  4.21E-04  5.11E-06  2.57E-04  0.00E+00  0.00E+00  1.34E-05  6.78E-04  5.22E-03  0.35719
    712.   14.045  8.94E-06  4.53E-04  4.03E-06  2.04E-04  0.00E+00  0.00E+00  1.30E-05  6.58E-04  5.25E-03  0.28243
    714.   14.006  9.52E-06  4.85E-04  3.10E-06  1.58E-04  0.00E+00  0.00E+00  1.26E-05  6.43E-04  5.27E-03  0.21765
    716.   13.966  7.85E-06  4.03E-04  5.51E-06  2.83E-04  0.00E+00  0.00E+00  1.34E-05  6.85E-04  5.30E-03  0.38740
    718.   13.928  7.56E-06  3.90E-04  5.90E-06  3.04E-04  0.00E+00  0.00E+00  1.35E-05  6.94E-04  5.33E-03  0.41539
    720.   13.889  7.69E-06  3.99E-04  5.70E-06  2.95E-04  0.00E+00  0.00E+00  1.34E-05  6.94E-04  5.35E-03  0.40164
    722.   13.850  7.34E-06  3.83E-04  6.11E-06  3.19E-04  0.00E+00  0.00E+00  1.35E-05  7.01E-04  5.38E-03  0.43145
    724.   13.812  6.78E-06  3.56E-04  6.76E-06  3.55E-04  0.00E+00  0.00E+00  1.35E-05  7.10E-04  5.41E-03  0.47826
    726.   13.774  6.81E-06  3.59E-04  6.71E-06  3.53E-04  0.00E+00  0.00E+00  1.35E-05  7.12E-04  5.43E-03  0.47502
    728.   13.736  8.01E-06  4.25E-04  4.97E-06  2.64E-04  0.00E+00  0.00E+00  1.30E-05  6.88E-04  5.46E-03  0.35273
    730.   13.699  9.42E-06  5.02E-04  2.96E-06  1.58E-04  0.00E+00  0.00E+00  1.24E-05  6.59E-04  5.48E-03  0.21021
    732.   13.661  7.94E-06  4.26E-04  4.96E-06  2.66E-04  0.00E+00  0.00E+00  1.29E-05  6.91E-04  5.51E-03  0.35335
    734.   13.624  6.66E-06  3.59E-04  6.78E-06  3.65E-04  0.00E+00  0.00E+00  1.34E-05  7.24E-04  5.54E-03  0.48313
    736.   13.587  6.47E-06  3.51E-04  6.96E-06  3.77E-04  0.00E+00  0.00E+00  1.34E-05  7.28E-04  5.56E-03  0.49719
    738.   13.550  6.76E-06  3.68E-04  6.59E-06  3.59E-04  0.00E+00  0.00E+00  1.34E-05  7.27E-04  5.59E-03  0.47166
    740.   13.514  8.62E-06  4.72E-04  4.03E-06  2.21E-04  0.00E+00  0.00E+00  1.27E-05  6.93E-04  5.62E-03  0.28898
    742.   13.477  9.54E-06  5.25E-04  2.71E-06  1.49E-04  0.00E+00  0.00E+00  1.22E-05  6.74E-04  5.64E-03  0.19450
    744.   13.441  9.07E-06  5.02E-04  3.37E-06  1.87E-04  0.00E+00  0.00E+00  1.24E-05  6.89E-04  5.66E-03  0.24261
    746.   13.405  7.96E-06  4.43E-04  4.71E-06  2.62E-04  0.00E+00  0.00E+00  1.27E-05  7.05E-04  5.69E-03  0.33938
    748.   13.369  7.71E-06  4.32E-04  4.99E-06  2.79E-04  0.00E+00  0.00E+00  1.27E-05  7.11E-04  5.72E-03  0.36045
    750.   13.333  7.25E-06  4.08E-04  5.70E-06  3.21E-04  0.00E+00  0.00E+00  1.29E-05  7.28E-04  5.74E-03  0.41229
    752.   13.298  7.65E-06  4.33E-04  5.18E-06  2.93E-04  0.00E+00  0.00E+00  1.28E-05  7.26E-04  5.77E-03  0.37566
    754.   13.263  8.71E-06  4.95E-04  3.62E-06  2.06E-04  0.00E+00  0.00E+00  1.23E-05  7.01E-04  5.79E-03  0.26269
    756.   13.228  7.74E-06  4.43E-04  4.83E-06  2.76E-04  0.00E+00  0.00E+00  1.26E-05  7.19E-04  5.82E-03  0.35156
    758.   13.193  6.04E-06  3.47E-04  7.11E-06  4.08E-04  0.00E+00  0.00E+00  1.31E-05  7.55E-04  5.84E-03  0.51802
    760.   13.158  6.08E-06  3.51E-04  7.03E-06  4.06E-04  0.00E+00  0.00E+00  1.31E-05  7.58E-04  5.87E-03  0.51362
    762.   13.123  5.85E-06  3.40E-04  7.28E-06  4.23E-04  0.00E+00  0.00E+00  1.31E-05  7.62E-04  5.90E-03  0.53261
    764.   13.089  5.49E-06  3.21E-04  7.66E-06  4.47E-04  0.00E+00  0.00E+00  1.32E-05  7.68E-04  5.92E-03  0.56198
    766.   13.055  5.75E-06  3.37E-04  7.32E-06  4.30E-04  0.00E+00  0.00E+00  1.31E-05  7.67E-04  5.95E-03  0.53815
    768.   13.021  6.62E-06  3.90E-04  6.15E-06  3.63E-04  0.00E+00  0.00E+00  1.28E-05  7.53E-04  5.97E-03  0.45267
    770.   12.987  6.91E-06  4.09E-04  5.73E-06  3.40E-04  0.00E+00  0.00E+00  1.26E-05  7.49E-04  6.00E-03  0.42275
    772.   12.953  5.76E-06  3.43E-04  7.19E-06  4.29E-04  0.00E+00  0.00E+00  1.30E-05  7.72E-04  6.02E-03  0.53181
    774.   12.920  6.11E-06  3.66E-04  6.73E-06  4.03E-04  0.00E+00  0.00E+00  1.28E-05  7.69E-04  6.05E-03  0.49816
    776.   12.887  7.84E-06  4.72E-04  4.37E-06  2.63E-04  0.00E+00  0.00E+00  1.22E-05  7.35E-04  6.07E-03  0.32418
    778.   12.853  7.40E-06  4.48E-04  4.89E-06  2.96E-04  0.00E+00  0.00E+00  1.23E-05  7.44E-04  6.10E-03  0.36402
    780.   12.821  6.08E-06  3.70E-04  6.64E-06  4.04E-04  0.00E+00  0.00E+00  1.27E-05  7.74E-04  6.12E-03  0.49540
    782.   12.788  5.92E-06  3.62E-04  6.74E-06  4.12E-04  0.00E+00  0.00E+00  1.27E-05  7.74E-04  6.15E-03  0.50344
    784.   12.755  7.40E-06  4.55E-04  4.68E-06  2.88E-04  0.00E+00  0.00E+00  1.21E-05  7.43E-04  6.17E-03  0.35063
    786.   12.723  6.30E-06  3.89E-04  6.22E-06  3.84E-04  0.00E+00  0.00E+00  1.25E-05  7.74E-04  6.20E-03  0.46705
    788.   12.690  5.04E-06  3.13E-04  7.80E-06  4.84E-04  0.00E+00  0.00E+00  1.28E-05  7.97E-04  6.23E-03  0.58630
    790.   12.658  5.00E-06  3.12E-04  7.81E-06  4.87E-04  0.00E+00  0.00E+00  1.28E-05  7.99E-04  6.25E-03  0.58827
    792.   12.626  5.86E-06  3.68E-04  6.71E-06  4.21E-04  0.00E+00  0.00E+00  1.26E-05  7.89E-04  6.28E-03  0.50688
    794.   12.594  7.60E-06  4.79E-04  4.40E-06  2.77E-04  0.00E+00  0.00E+00  1.20E-05  7.56E-04  6.30E-03  0.33267
    796.   12.563  8.11E-06  5.14E-04  3.55E-06  2.25E-04  0.00E+00  0.00E+00  1.17E-05  7.39E-04  6.32E-03  0.26943
    798.   12.531  8.14E-06  5.19E-04  3.34E-06  2.12E-04  0.00E+00  0.00E+00  1.15E-05  7.31E-04  6.35E-03  0.25375
    800.   12.500  6.68E-06  4.28E-04  5.23E-06  3.35E-04  0.00E+00  0.00E+00  1.19E-05  7.62E-04  6.37E-03  0.39895
  iv          805
1                                             RADIANCE(WATTS/CM2-STER-XXX)
0  FREQ   WAVLEN    PATH THERMAL      SURFACE EMISSION    SURFACE REFLECTED     TOTAL RADIANCE   INTEGRAL    TOTAL
  (CM-1) (MICRN)    (CM-1)   (MICRN)    (CM-1)   (MICRN)    (CM-1)   (MICRN)    (CM-1)   (MICRN)    (CM-1)   TRANS

    802.   12.469  6.12E-06  3.93E-04  6.20E-06  3.99E-04  0.00E+00  0.00E+00  1.23E-05  7.92E-04  6.39E-03  0.47384
    804.   12.438  6.66E-06  4.31E-04  5.40E-06  3.49E-04  0.00E+00  0.00E+00  1.21E-05  7.80E-04  6.42E-03  0.41354
    806.   12.407  5.86E-06  3.80E-04  6.42E-06  4.17E-04  0.00E+00  0.00E+00  1.23E-05  7.97E-04  6.44E-03  0.49266
    808.   12.376  6.18E-06  4.03E-04  5.96E-06  3.89E-04  0.00E+00  0.00E+00  1.21E-05  7.92E-04  6.47E-03  0.45832
    810.   12.346  4.96E-06  3.26E-04  7.45E-06  4.89E-04  0.00E+00  0.00E+00  1.24E-05  8.14E-04  6.49E-03  0.57484
    812.   12.315  4.74E-06  3.13E-04  7.70E-06  5.08E-04  0.00E+00  0.00E+00  1.24E-05  8.20E-04  6.52E-03  0.59536
    814.   12.285  6.18E-06  4.09E-04  5.87E-06  3.89E-04  0.00E+00  0.00E+00  1.20E-05  7.98E-04  6.54E-03  0.45515
    816.   12.255  5.38E-06  3.58E-04  6.83E-06  4.55E-04  0.00E+00  0.00E+00  1.22E-05  8.13E-04  6.57E-03  0.53085
    818.   12.225  4.13E-06  2.77E-04  8.33E-06  5.57E-04  0.00E+00  0.00E+00  1.25E-05  8.34E-04  6.59E-03  0.64890
    820.   12.195  4.02E-06  2.70E-04  8.42E-06  5.66E-04  0.00E+00  0.00E+00  1.24E-05  8.37E-04  6.62E-03  0.65757
    822.   12.165  4.02E-06  2.72E-04  8.39E-06  5.67E-04  0.00E+00  0.00E+00  1.24E-05  8.38E-04  6.64E-03  0.65648
    824.   12.136  4.40E-06  2.99E-04  7.87E-06  5.34E-04  0.00E+00  0.00E+00  1.23E-05  8.33E-04  6.67E-03  0.61754
    826.   12.107  5.17E-06  3.53E-04  6.91E-06  4.71E-04  0.00E+00  0.00E+00  1.21E-05  8.24E-04  6.69E-03  0.54319
    828.   12.077  5.52E-06  3.78E-04  6.43E-06  4.41E-04  0.00E+00  0.00E+00  1.20E-05  8.19E-04  6.71E-03  0.50717
    830.   12.048  4.27E-06  2.94E-04  7.92E-06  5.46E-04  0.00E+00  0.00E+00  1.22E-05  8.40E-04  6.74E-03  0.62663
    832.   12.019  3.78E-06  2.62E-04  8.49E-06  5.87E-04  0.00E+00  0.00E+00  1.23E-05  8.49E-04  6.76E-03  0.67263
    834.   11.990  3.88E-06  2.70E-04  8.34E-06  5.80E-04  0.00E+00  0.00E+00  1.22E-05  8.50E-04  6.79E-03  0.66269
    836.   11.962  4.13E-06  2.89E-04  8.01E-06  5.60E-04  0.00E+00  0.00E+00  1.21E-05  8.49E-04  6.81E-03  0.63864
    838.   11.933  4.38E-06  3.08E-04  7.65E-06  5.37E-04  0.00E+00  0.00E+00  1.20E-05  8.45E-04  6.83E-03  0.61124
    840.   11.905  5.28E-06  3.72E-04  6.49E-06  4.58E-04  0.00E+00  0.00E+00  1.18E-05  8.30E-04  6.86E-03  0.51988
    842.   11.876  4.52E-06  3.21E-04  7.39E-06  5.24E-04  0.00E+00  0.00E+00  1.19E-05  8.45E-04  6.88E-03  0.59396
    844.   11.848  3.69E-06  2.63E-04  8.37E-06  5.96E-04  0.00E+00  0.00E+00  1.21E-05  8.59E-04  6.91E-03  0.67399
    846.   11.820  3.57E-06  2.56E-04  8.48E-06  6.07E-04  0.00E+00  0.00E+00  1.21E-05  8.63E-04  6.93E-03  0.68483
    848.   11.792  3.99E-06  2.87E-04  7.92E-06  5.70E-04  0.00E+00  0.00E+00  1.19E-05  8.57E-04  6.95E-03  0.64110
    850.   11.765  5.24E-06  3.78E-04  6.27E-06  4.53E-04  0.00E+00  0.00E+00  1.15E-05  8.31E-04  6.98E-03  0.50878
    852.   11.737  6.39E-06  4.64E-04  4.75E-06  3.45E-04  0.00E+00  0.00E+00  1.11E-05  8.09E-04  7.00E-03  0.38679
    854.   11.710  5.89E-06  4.30E-04  5.44E-06  3.97E-04  0.00E+00  0.00E+00  1.13E-05  8.26E-04  7.02E-03  0.44420
    856.   11.682  4.30E-06  3.15E-04  7.39E-06  5.41E-04  0.00E+00  0.00E+00  1.17E-05  8.56E-04  7.05E-03  0.60484
    858.   11.655  3.53E-06  2.60E-04  8.31E-06  6.12E-04  0.00E+00  0.00E+00  1.18E-05  8.72E-04  7.07E-03  0.68190
    860.   11.628  3.56E-06  2.63E-04  8.24E-06  6.10E-04  0.00E+00  0.00E+00  1.18E-05  8.73E-04  7.09E-03  0.67855
    862.   11.601  3.29E-06  2.44E-04  8.52E-06  6.33E-04  0.00E+00  0.00E+00  1.18E-05  8.77E-04  7.12E-03  0.70316
    864.   11.574  3.91E-06  2.92E-04  7.72E-06  5.77E-04  0.00E+00  0.00E+00  1.16E-05  8.68E-04  7.14E-03  0.63911
    866.   11.547  3.94E-06  2.95E-04  7.65E-06  5.74E-04  0.00E+00  0.00E+00  1.16E-05  8.69E-04  7.16E-03  0.63526
    868.   11.521  3.17E-06  2.39E-04  8.54E-06  6.43E-04  0.00E+00  0.00E+00  1.17E-05  8.83E-04  7.19E-03  0.71078
    870.   11.494  3.68E-06  2.78E-04  7.85E-06  5.94E-04  0.00E+00  0.00E+00  1.15E-05  8.73E-04  7.21E-03  0.65541
    872.   11.468  3.73E-06  2.83E-04  7.76E-06  5.90E-04  0.00E+00  0.00E+00  1.15E-05  8.74E-04  7.23E-03  0.64988
    874.   11.442  3.10E-06  2.36E-04  8.52E-06  6.51E-04  0.00E+00  0.00E+00  1.16E-05  8.87E-04  7.26E-03  0.71538
    876.   11.416  3.09E-06  2.37E-04  8.50E-06  6.52E-04  0.00E+00  0.00E+00  1.16E-05  8.89E-04  7.28E-03  0.71523
    878.   11.390  3.58E-06  2.76E-04  7.86E-06  6.06E-04  0.00E+00  0.00E+00  1.14E-05  8.82E-04  7.30E-03  0.66334
    880.   11.364  3.70E-06  2.86E-04  7.67E-06  5.94E-04  0.00E+00  0.00E+00  1.14E-05  8.80E-04  7.32E-03  0.64973
    882.   11.338  3.60E-06  2.80E-04  7.76E-06  6.04E-04  0.00E+00  0.00E+00  1.14E-05  8.84E-04  7.35E-03  0.65906
    884.   11.312  3.83E-06  3.00E-04  7.43E-06  5.81E-04  0.00E+00  0.00E+00  1.13E-05  8.80E-04  7.37E-03  0.63305
    886.   11.287  3.79E-06  2.97E-04  7.40E-06  5.81E-04  0.00E+00  0.00E+00  1.12E-05  8.78E-04  7.39E-03  0.63206
    888.   11.261  4.03E-06  3.18E-04  7.09E-06  5.59E-04  0.00E+00  0.00E+00  1.11E-05  8.77E-04  7.41E-03  0.60733
    890.   11.236  3.68E-06  2.92E-04  7.53E-06  5.96E-04  0.00E+00  0.00E+00  1.12E-05  8.88E-04  7.44E-03  0.64714
    892.   11.211  3.06E-06  2.44E-04  8.22E-06  6.54E-04  0.00E+00  0.00E+00  1.13E-05  8.98E-04  7.46E-03  0.70870
    894.   11.186  2.74E-06  2.19E-04  8.57E-06  6.85E-04  0.00E+00  0.00E+00  1.13E-05  9.03E-04  7.48E-03  0.74067
    896.   11.161  2.84E-06  2.28E-04  8.41E-06  6.75E-04  0.00E+00  0.00E+00  1.13E-05  9.03E-04  7.50E-03  0.72942
    898.   11.136  2.92E-06  2.36E-04  8.28E-06  6.67E-04  0.00E+00  0.00E+00  1.12E-05  9.03E-04  7.53E-03  0.71997
    900.   11.111  2.70E-06  2.19E-04  8.49E-06  6.88E-04  0.00E+00  0.00E+00  1.12E-05  9.07E-04  7.55E-03  0.74118
  iv          905
1                                             RADIANCE(WATTS/CM2-STER-XXX)
0  FREQ   WAVLEN    PATH THERMAL      SURFACE EMISSION    SURFACE REFLECTED     TOTAL RADIANCE   INTEGRAL    TOTAL
  (CM-1) (MICRN)    (CM-1)   (MICRN)    (CM-1)   (MICRN)    (CM-1)   (MICRN)    (CM-1)   (MICRN)    (CM-1)   TRANS

    902.   11.086  2.63E-06  2.14E-04  8.54E-06  6.94E-04  0.00E+00  0.00E+00  1.12E-05  9.09E-04  7.57E-03  0.74708
    904.   11.062  2.78E-06  2.27E-04  8.32E-06  6.80E-04  0.00E+00  0.00E+00  1.11E-05  9.08E-04  7.59E-03  0.73065
    906.   11.038  3.16E-06  2.60E-04  7.84E-06  6.44E-04  0.00E+00  0.00E+00  1.10E-05  9.03E-04  7.62E-03  0.69054
    908.   11.013  3.70E-06  3.05E-04  7.11E-06  5.86E-04  0.00E+00  0.00E+00  1.08E-05  8.92E-04  7.64E-03  0.62802
    910.   10.989  3.52E-06  2.91E-04  7.29E-06  6.04E-04  0.00E+00  0.00E+00  1.08E-05  8.95E-04  7.66E-03  0.64622
    912.   10.965  2.76E-06  2.30E-04  8.20E-06  6.82E-04  0.00E+00  0.00E+00  1.10E-05  9.12E-04  7.68E-03  0.72936
    914.   10.941  2.80E-06  2.34E-04  8.12E-06  6.78E-04  0.00E+00  0.00E+00  1.09E-05  9.12E-04  7.70E-03  0.72427
    916.   10.917  2.68E-06  2.25E-04  8.22E-06  6.89E-04  0.00E+00  0.00E+00  1.09E-05  9.15E-04  7.72E-03  0.73499
    918.   10.893  2.79E-06  2.35E-04  8.06E-06  6.79E-04  0.00E+00  0.00E+00  1.08E-05  9.14E-04  7.75E-03  0.72303
    920.   10.870  2.98E-06  2.52E-04  7.77E-06  6.58E-04  0.00E+00  0.00E+00  1.08E-05  9.10E-04  7.77E-03  0.69986
    922.   10.846  3.47E-06  2.95E-04  7.13E-06  6.06E-04  0.00E+00  0.00E+00  1.06E-05  9.01E-04  7.79E-03  0.64378
    924.   10.823  3.30E-06  2.82E-04  7.29E-06  6.22E-04  0.00E+00  0.00E+00  1.06E-05  9.04E-04  7.81E-03  0.66019
    926.   10.799  2.89E-06  2.48E-04  7.74E-06  6.64E-04  0.00E+00  0.00E+00  1.06E-05  9.12E-04  7.83E-03  0.70383
    928.   10.776  2.49E-06  2.14E-04  8.22E-06  7.08E-04  0.00E+00  0.00E+00  1.07E-05  9.22E-04  7.85E-03  0.74989
    930.   10.753  2.46E-06  2.12E-04  8.22E-06  7.11E-04  0.00E+00  0.00E+00  1.07E-05  9.24E-04  7.87E-03  0.75229
    932.   10.730  2.30E-06  2.00E-04  8.36E-06  7.27E-04  0.00E+00  0.00E+00  1.07E-05  9.26E-04  7.90E-03  0.76778
    934.   10.707  2.25E-06  1.96E-04  8.38E-06  7.31E-04  0.00E+00  0.00E+00  1.06E-05  9.28E-04  7.92E-03  0.77222
    936.   10.684  2.25E-06  1.97E-04  8.35E-06  7.31E-04  0.00E+00  0.00E+00  1.06E-05  9.28E-04  7.94E-03  0.77113
    938.   10.661  2.23E-06  1.96E-04  8.33E-06  7.33E-04  0.00E+00  0.00E+00  1.06E-05  9.29E-04  7.96E-03  0.77223
    940.   10.638  2.33E-06  2.06E-04  8.18E-06  7.22E-04  0.00E+00  0.00E+00  1.05E-05  9.28E-04  7.98E-03  0.76052
    942.   10.616  2.32E-06  2.06E-04  8.15E-06  7.23E-04  0.00E+00  0.00E+00  1.05E-05  9.29E-04  8.00E-03  0.76052
    944.   10.593  2.35E-06  2.09E-04  8.09E-06  7.21E-04  0.00E+00  0.00E+00  1.04E-05  9.30E-04  8.02E-03  0.75714
    946.   10.571  2.61E-06  2.34E-04  7.71E-06  6.90E-04  0.00E+00  0.00E+00  1.03E-05  9.23E-04  8.04E-03  0.72384
    948.   10.549  2.97E-06  2.67E-04  7.19E-06  6.46E-04  0.00E+00  0.00E+00  1.02E-05  9.13E-04  8.06E-03  0.67803
    950.   10.526  2.37E-06  2.13E-04  7.92E-06  7.15E-04  0.00E+00  0.00E+00  1.03E-05  9.28E-04  8.08E-03  0.74923
    952.   10.504  2.32E-06  2.11E-04  7.95E-06  7.21E-04  0.00E+00  0.00E+00  1.03E-05  9.31E-04  8.10E-03  0.75454
    954.   10.482  2.69E-06  2.45E-04  7.47E-06  6.80E-04  0.00E+00  0.00E+00  1.02E-05  9.25E-04  8.12E-03  0.71150
    956.   10.460  2.49E-06  2.27E-04  7.68E-06  7.02E-04  0.00E+00  0.00E+00  1.02E-05  9.29E-04  8.14E-03  0.73391
    958.   10.438  2.21E-06  2.03E-04  7.97E-06  7.32E-04  0.00E+00  0.00E+00  1.02E-05  9.35E-04  8.16E-03  0.76467
    960.   10.417  2.30E-06  2.12E-04  7.84E-06  7.22E-04  0.00E+00  0.00E+00  1.01E-05  9.34E-04  8.19E-03  0.75434
    962.   10.395  2.04E-06  1.88E-04  8.11E-06  7.50E-04  0.00E+00  0.00E+00  1.01E-05  9.39E-04  8.21E-03  0.78278
    964.   10.373  1.93E-06  1.80E-04  8.19E-06  7.61E-04  0.00E+00  0.00E+00  1.01E-05  9.40E-04  8.23E-03  0.79327
    966.   10.352  2.18E-06  2.04E-04  7.86E-06  7.33E-04  0.00E+00  0.00E+00  1.00E-05  9.37E-04  8.25E-03  0.76384
    968.   10.331  2.07E-06  1.94E-04  7.95E-06  7.45E-04  0.00E+00  0.00E+00  1.00E-05  9.39E-04  8.27E-03  0.77608
    970.   10.309  2.23E-06  2.10E-04  7.72E-06  7.27E-04  0.00E+00  0.00E+00  9.95E-06  9.36E-04  8.29E-03  0.75601
    972.   10.288  2.70E-06  2.55E-04  7.13E-06  6.74E-04  0.00E+00  0.00E+00  9.83E-06  9.28E-04  8.31E-03  0.70050
    974.   10.267  2.60E-06  2.46E-04  7.20E-06  6.83E-04  0.00E+00  0.00E+00  9.80E-06  9.29E-04  8.33E-03  0.71002
    976.   10.246  2.59E-06  2.47E-04  7.16E-06  6.82E-04  0.00E+00  0.00E+00  9.76E-06  9.29E-04  8.34E-03  0.70882
    978.   10.225  2.13E-06  2.04E-04  7.68E-06  7.35E-04  0.00E+00  0.00E+00  9.81E-06  9.39E-04  8.36E-03  0.76294
    980.   10.204  1.76E-06  1.69E-04  8.09E-06  7.77E-04  0.00E+00  0.00E+00  9.85E-06  9.46E-04  8.38E-03  0.80615
    982.   10.183  1.79E-06  1.73E-04  8.01E-06  7.73E-04  0.00E+00  0.00E+00  9.80E-06  9.45E-04  8.40E-03  0.80139
    984.   10.163  1.82E-06  1.76E-04  7.94E-06  7.69E-04  0.00E+00  0.00E+00  9.76E-06  9.45E-04  8.42E-03  0.79736
    986.   10.142  1.66E-06  1.62E-04  8.09E-06  7.86E-04  0.00E+00  0.00E+00  9.75E-06  9.48E-04  8.44E-03  0.81474
    988.   10.121  1.60E-06  1.57E-04  8.12E-06  7.93E-04  0.00E+00  0.00E+00  9.72E-06  9.49E-04  8.46E-03  0.82079
    990.   10.101  1.63E-06  1.60E-04  8.05E-06  7.89E-04  0.00E+00  0.00E+00  9.68E-06  9.49E-04  8.48E-03  0.81721
    992.   10.081  1.57E-06  1.55E-04  8.08E-06  7.96E-04  0.00E+00  0.00E+00  9.65E-06  9.50E-04  8.50E-03  0.82322
    994.   10.060  1.57E-06  1.55E-04  8.05E-06  7.95E-04  0.00E+00  0.00E+00  9.62E-06  9.50E-04  8.52E-03  0.82283
    996.   10.040  1.55E-06  1.54E-04  8.03E-06  7.97E-04  0.00E+00  0.00E+00  9.58E-06  9.51E-04  8.54E-03  0.82382
    998.   10.020  1.85E-06  1.84E-04  7.65E-06  7.62E-04  0.00E+00  0.00E+00  9.50E-06  9.46E-04  8.56E-03  0.78735
   1000.   10.000  2.07E-06  2.07E-04  7.35E-06  7.35E-04  0.00E+00  0.00E+00  9.42E-06  9.42E-04  8.58E-03  0.75940
  iv         1005
1                                             RADIANCE(WATTS/CM2-STER-XXX)
0  FREQ   WAVLEN    PATH THERMAL      SURFACE EMISSION    SURFACE REFLECTED     TOTAL RADIANCE   INTEGRAL    TOTAL
  (CM-1) (MICRN)    (CM-1)   (MICRN)    (CM-1)   (MICRN)    (CM-1)   (MICRN)    (CM-1)   (MICRN)    (CM-1)   TRANS

   1002.    9.980  1.75E-06  1.75E-04  7.69E-06  7.72E-04  0.00E+00  0.00E+00  9.44E-06  9.47E-04  8.60E-03  0.79767
   1004.    9.960  1.80E-06  1.81E-04  7.59E-06  7.65E-04  0.00E+00  0.00E+00  9.39E-06  9.46E-04  8.61E-03  0.79008
   1006.    9.940  1.61E-06  1.63E-04  7.78E-06  7.87E-04  0.00E+00  0.00E+00  9.39E-06  9.50E-04  8.63E-03  0.81272
   1008.    9.921  1.66E-06  1.68E-04  7.68E-06  7.81E-04  0.00E+00  0.00E+00  9.34E-06  9.49E-04  8.65E-03  0.80581
   1010.    9.901  2.27E-06  2.31E-04  6.91E-06  7.05E-04  0.00E+00  0.00E+00  9.18E-06  9.36E-04  8.67E-03  0.72769
   1012.    9.881  2.22E-06  2.28E-04  6.92E-06  7.09E-04  0.00E+00  0.00E+00  9.14E-06  9.36E-04  8.69E-03  0.73112
   1014.    9.862  2.27E-06  2.34E-04  6.79E-06  6.99E-04  0.00E+00  0.00E+00  9.07E-06  9.32E-04  8.71E-03  0.72051
   1016.    9.843  2.11E-06  2.18E-04  6.99E-06  7.21E-04  0.00E+00  0.00E+00  9.09E-06  9.39E-04  8.72E-03  0.74370
   1018.    9.823  2.16E-06  2.24E-04  6.89E-06  7.14E-04  0.00E+00  0.00E+00  9.05E-06  9.38E-04  8.74E-03  0.73594
   1020.    9.804  1.62E-06  1.69E-04  7.50E-06  7.80E-04  0.00E+00  0.00E+00  9.12E-06  9.49E-04  8.76E-03  0.80439
   1022.    9.785  1.39E-06  1.45E-04  7.74E-06  8.09E-04  0.00E+00  0.00E+00  9.13E-06  9.54E-04  8.78E-03  0.83361
   1024.    9.766  1.29E-06  1.35E-04  7.83E-06  8.21E-04  0.00E+00  0.00E+00  9.11E-06  9.55E-04  8.80E-03  0.84587
   1026.    9.747  1.45E-06  1.53E-04  7.59E-06  7.99E-04  0.00E+00  0.00E+00  9.04E-06  9.51E-04  8.82E-03  0.82330
   1028.    9.728  2.35E-06  2.49E-04  6.45E-06  6.82E-04  0.00E+00  0.00E+00  8.81E-06  9.31E-04  8.83E-03  0.70255
   1030.    9.709  2.39E-06  2.53E-04  6.39E-06  6.78E-04  0.00E+00  0.00E+00  8.78E-06  9.32E-04  8.85E-03  0.69923
   1032.    9.690  1.68E-06  1.79E-04  7.22E-06  7.69E-04  0.00E+00  0.00E+00  8.90E-06  9.48E-04  8.87E-03  0.79250
   1034.    9.671  1.30E-06  1.39E-04  7.63E-06  8.16E-04  0.00E+00  0.00E+00  8.93E-06  9.55E-04  8.89E-03  0.84061
   1036.    9.653  1.21E-06  1.30E-04  7.70E-06  8.26E-04  0.00E+00  0.00E+00  8.91E-06  9.56E-04  8.90E-03  0.85139
   1038.    9.634  1.57E-06  1.69E-04  7.24E-06  7.80E-04  0.00E+00  0.00E+00  8.81E-06  9.49E-04  8.92E-03  0.80373
   1040.    9.615  1.61E-06  1.74E-04  7.16E-06  7.74E-04  0.00E+00  0.00E+00  8.77E-06  9.48E-04  8.94E-03  0.79807
   1042.    9.597  1.36E-06  1.47E-04  7.41E-06  8.05E-04  0.00E+00  0.00E+00  8.77E-06  9.52E-04  8.96E-03  0.82969
   1044.    9.579  1.27E-06  1.39E-04  7.47E-06  8.15E-04  0.00E+00  0.00E+00  8.75E-06  9.53E-04  8.97E-03  0.83961
   1046.    9.560  1.10E-06  1.20E-04  7.64E-06  8.36E-04  0.00E+00  0.00E+00  8.74E-06  9.57E-04  8.99E-03  0.86218
   1048.    9.542  1.41E-06  1.54E-04  7.24E-06  7.95E-04  0.00E+00  0.00E+00  8.65E-06  9.50E-04  9.01E-03  0.81983
   1050.    9.524  1.80E-06  1.98E-04  6.74E-06  7.43E-04  0.00E+00  0.00E+00  8.54E-06  9.41E-04  9.03E-03  0.76603
   1052.    9.506  1.47E-06  1.63E-04  7.10E-06  7.85E-04  0.00E+00  0.00E+00  8.57E-06  9.48E-04  9.04E-03  0.80997
   1054.    9.488  1.23E-06  1.37E-04  7.34E-06  8.16E-04  0.00E+00  0.00E+00  8.58E-06  9.53E-04  9.06E-03  0.84118
   1056.    9.470  1.45E-06  1.62E-04  7.04E-06  7.85E-04  0.00E+00  0.00E+00  8.49E-06  9.47E-04  9.08E-03  0.80975
   1058.    9.452  1.49E-06  1.67E-04  6.97E-06  7.80E-04  0.00E+00  0.00E+00  8.46E-06  9.47E-04  9.09E-03  0.80464
   1060.    9.434  1.70E-06  1.91E-04  6.67E-06  7.50E-04  0.00E+00  0.00E+00  8.38E-06  9.41E-04  9.11E-03  0.77378
   1062.    9.416  1.59E-06  1.80E-04  6.77E-06  7.63E-04  0.00E+00  0.00E+00  8.36E-06  9.43E-04  9.13E-03  0.78782
   1064.    9.398  1.82E-06  2.06E-04  6.41E-06  7.25E-04  0.00E+00  0.00E+00  8.23E-06  9.31E-04  9.14E-03  0.74884
   1066.    9.381  2.52E-06  2.87E-04  5.43E-06  6.17E-04  0.00E+00  0.00E+00  7.96E-06  9.04E-04  9.16E-03  0.63746
   1068.    9.363  1.71E-06  1.95E-04  6.48E-06  7.39E-04  0.00E+00  0.00E+00  8.19E-06  9.34E-04  9.18E-03  0.76392
   1070.    9.346  1.04E-06  1.19E-04  7.30E-06  8.35E-04  0.00E+00  0.00E+00  8.33E-06  9.54E-04  9.19E-03  0.86345
   1072.    9.328  1.58E-06  1.82E-04  6.59E-06  7.58E-04  0.00E+00  0.00E+00  8.17E-06  9.39E-04  9.21E-03  0.78291
   1074.    9.311  2.31E-06  2.66E-04  5.65E-06  6.51E-04  0.00E+00  0.00E+00  7.95E-06  9.17E-04  9.23E-03  0.67348
   1076.    9.294  1.60E-06  1.86E-04  6.49E-06  7.52E-04  0.00E+00  0.00E+00  8.10E-06  9.38E-04  9.24E-03  0.77812
   1078.    9.276  1.04E-06  1.21E-04  7.15E-06  8.31E-04  0.00E+00  0.00E+00  8.19E-06  9.52E-04  9.26E-03  0.85961
   1080.    9.259  1.01E-06  1.18E-04  7.15E-06  8.33E-04  0.00E+00  0.00E+00  8.16E-06  9.52E-04  9.27E-03  0.86279
   1082.    9.242  1.01E-06  1.19E-04  7.11E-06  8.33E-04  0.00E+00  0.00E+00  8.13E-06  9.51E-04  9.29E-03  0.86240
   1084.    9.225  1.14E-06  1.34E-04  6.93E-06  8.14E-04  0.00E+00  0.00E+00  8.07E-06  9.48E-04  9.31E-03  0.84325
   1086.    9.208  1.18E-06  1.39E-04  6.84E-06  8.07E-04  0.00E+00  0.00E+00  8.02E-06  9.46E-04  9.32E-03  0.83662
   1088.    9.191  1.06E-06  1.26E-04  6.95E-06  8.23E-04  0.00E+00  0.00E+00  8.02E-06  9.49E-04  9.34E-03  0.85358
   1090.    9.174  1.71E-06  2.03E-04  6.10E-06  7.25E-04  0.00E+00  0.00E+00  7.81E-06  9.28E-04  9.35E-03  0.75193
   1092.    9.158  1.80E-06  2.15E-04  5.96E-06  7.11E-04  0.00E+00  0.00E+00  7.76E-06  9.25E-04  9.37E-03  0.73795
   1094.    9.141  1.01E-06  1.21E-04  6.92E-06  8.28E-04  0.00E+00  0.00E+00  7.93E-06  9.49E-04  9.39E-03  0.85980
   1096.    9.124  9.12E-07  1.10E-04  6.99E-06  8.40E-04  0.00E+00  0.00E+00  7.91E-06  9.50E-04  9.40E-03  0.87291
   1098.    9.107  1.36E-06  1.64E-04  6.41E-06  7.73E-04  0.00E+00  0.00E+00  7.77E-06  9.37E-04  9.42E-03  0.80326
   1100.    9.091  2.57E-06  3.11E-04  4.82E-06  5.83E-04  0.00E+00  0.00E+00  7.39E-06  8.94E-04  9.43E-03  0.60608
  iv         1105
1                                             RADIANCE(WATTS/CM2-STER-XXX)
0  FREQ   WAVLEN    PATH THERMAL      SURFACE EMISSION    SURFACE REFLECTED     TOTAL RADIANCE   INTEGRAL    TOTAL
  (CM-1) (MICRN)    (CM-1)   (MICRN)    (CM-1)   (MICRN)    (CM-1)   (MICRN)    (CM-1)   (MICRN)    (CM-1)   TRANS

   1102.    9.074  2.07E-06  2.52E-04  5.43E-06  6.59E-04  0.00E+00  0.00E+00  7.50E-06  9.11E-04  9.45E-03  0.68610
   1104.    9.058  1.25E-06  1.53E-04  6.47E-06  7.88E-04  0.00E+00  0.00E+00  7.72E-06  9.41E-04  9.46E-03  0.82060
   1106.    9.042  2.18E-06  2.66E-04  5.22E-06  6.38E-04  0.00E+00  0.00E+00  7.40E-06  9.05E-04  9.48E-03  0.66482
   1108.    9.025  2.00E-06  2.46E-04  5.39E-06  6.62E-04  0.00E+00  0.00E+00  7.39E-06  9.07E-04  9.49E-03  0.69010
   1110.    9.009  1.66E-06  2.05E-04  5.82E-06  7.17E-04  0.00E+00  0.00E+00  7.48E-06  9.22E-04  9.51E-03  0.74799
   1112.    8.993  2.22E-06  2.75E-04  5.00E-06  6.19E-04  0.00E+00  0.00E+00  7.23E-06  8.94E-04  9.52E-03  0.64603
   1114.    8.977  1.33E-06  1.65E-04  6.14E-06  7.62E-04  0.00E+00  0.00E+00  7.47E-06  9.27E-04  9.54E-03  0.79685
   1116.    8.961  1.07E-06  1.33E-04  6.47E-06  8.06E-04  0.00E+00  0.00E+00  7.54E-06  9.39E-04  9.55E-03  0.84250
   1118.    8.945  1.36E-06  1.69E-04  6.10E-06  7.63E-04  0.00E+00  0.00E+00  7.46E-06  9.32E-04  9.57E-03  0.79784
   1120.    8.929  2.21E-06  2.78E-04  4.88E-06  6.12E-04  0.00E+00  0.00E+00  7.09E-06  8.89E-04  9.58E-03  0.64002
   1122.    8.913  2.24E-06  2.82E-04  4.81E-06  6.06E-04  0.00E+00  0.00E+00  7.05E-06  8.88E-04  9.59E-03  0.63532
   1124.    8.897  1.12E-06  1.42E-04  6.28E-06  7.93E-04  0.00E+00  0.00E+00  7.40E-06  9.35E-04  9.61E-03  0.83178
   1126.    8.881  9.05E-07  1.15E-04  6.50E-06  8.24E-04  0.00E+00  0.00E+00  7.40E-06  9.39E-04  9.62E-03  0.86467
   1128.    8.865  8.78E-07  1.12E-04  6.50E-06  8.27E-04  0.00E+00  0.00E+00  7.38E-06  9.38E-04  9.64E-03  0.86810
   1130.    8.850  9.50E-07  1.21E-04  6.38E-06  8.15E-04  0.00E+00  0.00E+00  7.33E-06  9.36E-04  9.65E-03  0.85619
   1132.    8.834  1.14E-06  1.46E-04  6.13E-06  7.85E-04  0.00E+00  0.00E+00  7.27E-06  9.31E-04  9.67E-03  0.82573
   1134.    8.818  2.49E-06  3.21E-04  4.31E-06  5.55E-04  0.00E+00  0.00E+00  6.81E-06  8.75E-04  9.68E-03  0.58331
   1136.    8.803  3.96E-06  5.11E-04  2.09E-06  2.69E-04  0.00E+00  0.00E+00  6.05E-06  7.80E-04  9.69E-03  0.28351
   1138.    8.787  2.74E-06  3.54E-04  3.85E-06  4.98E-04  0.00E+00  0.00E+00  6.58E-06  8.53E-04  9.71E-03  0.52584
   1140.    8.772  1.30E-06  1.69E-04  5.81E-06  7.55E-04  0.00E+00  0.00E+00  7.11E-06  9.24E-04  9.72E-03  0.79720
   1142.    8.757  1.15E-06  1.50E-04  5.96E-06  7.77E-04  0.00E+00  0.00E+00  7.10E-06  9.26E-04  9.74E-03  0.82037
   1144.    8.741  9.52E-07  1.25E-04  6.15E-06  8.05E-04  0.00E+00  0.00E+00  7.10E-06  9.30E-04  9.75E-03  0.85115
   1146.    8.726  9.30E-07  1.22E-04  6.15E-06  8.07E-04  0.00E+00  0.00E+00  7.08E-06  9.29E-04  9.76E-03  0.85399
   1148.    8.711  1.83E-06  2.41E-04  4.92E-06  6.48E-04  0.00E+00  0.00E+00  6.75E-06  8.89E-04  9.78E-03  0.68601
   1150.    8.696  2.60E-06  3.43E-04  3.90E-06  5.16E-04  0.00E+00  0.00E+00  6.50E-06  8.60E-04  9.79E-03  0.54722
   1152.    8.681  2.67E-06  3.54E-04  3.77E-06  5.00E-04  0.00E+00  0.00E+00  6.43E-06  8.54E-04  9.80E-03  0.53024
   1154.    8.666  1.66E-06  2.21E-04  5.08E-06  6.77E-04  0.00E+00  0.00E+00  6.74E-06  8.97E-04  9.82E-03  0.71907
   1156.    8.651  8.99E-07  1.20E-04  6.02E-06  8.04E-04  0.00E+00  0.00E+00  6.92E-06  9.25E-04  9.83E-03  0.85521
   1158.    8.636  8.25E-07  1.11E-04  6.08E-06  8.15E-04  0.00E+00  0.00E+00  6.90E-06  9.25E-04  9.84E-03  0.86693
   1160.    8.621  8.60E-07  1.16E-04  6.00E-06  8.08E-04  0.00E+00  0.00E+00  6.86E-06  9.24E-04  9.86E-03  0.86062
   1162.    8.606  1.02E-06  1.38E-04  5.78E-06  7.80E-04  0.00E+00  0.00E+00  6.80E-06  9.18E-04  9.87E-03  0.83186
   1164.    8.591  2.23E-06  3.02E-04  4.09E-06  5.54E-04  0.00E+00  0.00E+00  6.32E-06  8.56E-04  9.88E-03  0.59032
   1166.    8.576  2.72E-06  3.70E-04  3.41E-06  4.64E-04  0.00E+00  0.00E+00  6.13E-06  8.34E-04  9.90E-03  0.49623
   1168.    8.562  1.42E-06  1.94E-04  5.18E-06  7.07E-04  0.00E+00  0.00E+00  6.60E-06  9.01E-04  9.91E-03  0.75660
   1170.    8.547  1.27E-06  1.73E-04  5.36E-06  7.34E-04  0.00E+00  0.00E+00  6.63E-06  9.08E-04  9.92E-03  0.78627
   1172.    8.532  2.14E-06  2.94E-04  4.20E-06  5.77E-04  0.00E+00  0.00E+00  6.34E-06  8.71E-04  9.94E-03  0.61782
   1174.    8.518  3.65E-06  5.04E-04  1.78E-06  2.45E-04  0.00E+00  0.00E+00  5.43E-06  7.49E-04  9.95E-03  0.26272
   1176.    8.503  2.98E-06  4.12E-04  2.74E-06  3.78E-04  0.00E+00  0.00E+00  5.72E-06  7.91E-04  9.96E-03  0.40723
   1178.    8.489  1.66E-06  2.30E-04  4.77E-06  6.62E-04  0.00E+00  0.00E+00  6.43E-06  8.92E-04  9.97E-03  0.71236
   1180.    8.475  1.43E-06  2.00E-04  4.99E-06  6.94E-04  0.00E+00  0.00E+00  6.42E-06  8.94E-04  9.98E-03  0.74771
   1182.    8.460  1.31E-06  1.83E-04  5.11E-06  7.13E-04  0.00E+00  0.00E+00  6.42E-06  8.97E-04  1.00E-02  0.76919
   1184.    8.446  1.65E-06  2.31E-04  4.70E-06  6.58E-04  0.00E+00  0.00E+00  6.34E-06  8.89E-04  1.00E-02  0.71037
   1186.    8.432  2.96E-06  4.16E-04  2.68E-06  3.78E-04  0.00E+00  0.00E+00  5.64E-06  7.93E-04  1.00E-02  0.40751
   1188.    8.418  3.34E-06  4.71E-04  2.12E-06  3.00E-04  0.00E+00  0.00E+00  5.46E-06  7.71E-04  1.00E-02  0.32479
   1190.    8.403  2.04E-06  2.89E-04  4.08E-06  5.78E-04  0.00E+00  0.00E+00  6.12E-06  8.67E-04  1.00E-02  0.62616
   1192.    8.389  1.45E-06  2.07E-04  4.78E-06  6.79E-04  0.00E+00  0.00E+00  6.23E-06  8.86E-04  1.01E-02  0.73682
   1194.    8.375  1.41E-06  2.00E-04  4.81E-06  6.86E-04  0.00E+00  0.00E+00  6.22E-06  8.86E-04  1.01E-02  0.74494
   1196.    8.361  1.89E-06  2.71E-04  4.07E-06  5.82E-04  0.00E+00  0.00E+00  5.96E-06  8.53E-04  1.01E-02  0.63295
   1198.    8.347  2.97E-06  4.26E-04  2.44E-06  3.50E-04  0.00E+00  0.00E+00  5.41E-06  7.76E-04  1.01E-02  0.38133
   1200.    8.333  2.24E-06  3.23E-04  3.57E-06  5.13E-04  0.00E+00  0.00E+00  5.81E-06  8.36E-04  1.01E-02  0.56045
  iv         1205
1                                             RADIANCE(WATTS/CM2-STER-XXX)
0  FREQ   WAVLEN    PATH THERMAL      SURFACE EMISSION    SURFACE REFLECTED     TOTAL RADIANCE   INTEGRAL    TOTAL
  (CM-1) (MICRN)    (CM-1)   (MICRN)    (CM-1)   (MICRN)    (CM-1)   (MICRN)    (CM-1)   (MICRN)    (CM-1)   TRANS

   1202.    8.319  1.10E-06  1.58E-04  5.08E-06  7.35E-04  0.00E+00  0.00E+00  6.18E-06  8.93E-04  1.01E-02  0.80198
   1204.    8.306  1.12E-06  1.63E-04  5.00E-06  7.25E-04  0.00E+00  0.00E+00  6.12E-06  8.88E-04  1.01E-02  0.79200
   1206.    8.292  1.63E-06  2.37E-04  4.33E-06  6.30E-04  0.00E+00  0.00E+00  5.96E-06  8.67E-04  1.01E-02  0.68961
   1208.    8.278  1.74E-06  2.53E-04  4.20E-06  6.14E-04  0.00E+00  0.00E+00  5.94E-06  8.67E-04  1.02E-02  0.67249
   1210.    8.264  2.64E-06  3.87E-04  2.70E-06  3.95E-04  0.00E+00  0.00E+00  5.34E-06  7.82E-04  1.02E-02  0.43304
   1212.    8.251  3.62E-06  5.32E-04  9.83E-07  1.44E-04  0.00E+00  0.00E+00  4.60E-06  6.76E-04  1.02E-02  0.15861
   1214.    8.237  3.04E-06  4.48E-04  2.22E-06  3.27E-04  0.00E+00  0.00E+00  5.25E-06  7.74E-04  1.02E-02  0.36033
   1216.    8.224  2.20E-06  3.25E-04  3.51E-06  5.19E-04  0.00E+00  0.00E+00  5.71E-06  8.44E-04  1.02E-02  0.57202
   1218.    8.210  2.86E-06  4.24E-04  2.41E-06  3.57E-04  0.00E+00  0.00E+00  5.27E-06  7.81E-04  1.02E-02  0.39385
   1220.    8.197  3.03E-06  4.51E-04  2.13E-06  3.17E-04  0.00E+00  0.00E+00  5.16E-06  7.68E-04  1.02E-02  0.35057
   1222.    8.183  2.62E-06  3.92E-04  2.85E-06  4.26E-04  0.00E+00  0.00E+00  5.48E-06  8.18E-04  1.02E-02  0.47110
   1224.    8.170  3.19E-06  4.79E-04  1.64E-06  2.45E-04  0.00E+00  0.00E+00  4.83E-06  7.24E-04  1.02E-02  0.27133
   1226.    8.157  3.29E-06  4.94E-04  1.30E-06  1.95E-04  0.00E+00  0.00E+00  4.59E-06  6.89E-04  1.02E-02  0.21723
   1228.    8.143  2.18E-06  3.28E-04  3.26E-06  4.92E-04  0.00E+00  0.00E+00  5.44E-06  8.20E-04  1.03E-02  0.54699
   1230.    8.130  1.33E-06  2.02E-04  4.37E-06  6.61E-04  0.00E+00  0.00E+00  5.70E-06  8.63E-04  1.03E-02  0.73618
   1232.    8.117  1.10E-06  1.66E-04  4.64E-06  7.05E-04  0.00E+00  0.00E+00  5.74E-06  8.71E-04  1.03E-02  0.78561
   1234.    8.104  1.19E-06  1.81E-04  4.49E-06  6.84E-04  0.00E+00  0.00E+00  5.68E-06  8.65E-04  1.03E-02  0.76380
   1236.    8.091  1.71E-06  2.61E-04  3.77E-06  5.75E-04  0.00E+00  0.00E+00  5.47E-06  8.36E-04  1.03E-02  0.64304
   1238.    8.078  2.41E-06  3.69E-04  2.79E-06  4.28E-04  0.00E+00  0.00E+00  5.20E-06  7.97E-04  1.03E-02  0.47940
   1240.    8.065  2.62E-06  4.04E-04  2.53E-06  3.89E-04  0.00E+00  0.00E+00  5.16E-06  7.93E-04  1.03E-02  0.43701
   1242.    8.052  2.80E-06  4.32E-04  2.09E-06  3.22E-04  0.00E+00  0.00E+00  4.89E-06  7.54E-04  1.03E-02  0.36154
   1244.    8.039  3.33E-06  5.16E-04  8.47E-07  1.31E-04  0.00E+00  0.00E+00  4.18E-06  6.47E-04  1.03E-02  0.14742
   1246.    8.026  2.75E-06  4.28E-04  2.03E-06  3.16E-04  0.00E+00  0.00E+00  4.79E-06  7.43E-04  1.03E-02  0.35633
   1248.    8.013  2.34E-06  3.65E-04  2.83E-06  4.41E-04  0.00E+00  0.00E+00  5.17E-06  8.06E-04  1.04E-02  0.49781
   1250.    8.000  2.24E-06  3.50E-04  2.86E-06  4.46E-04  0.00E+00  0.00E+00  5.10E-06  7.97E-04  1.04E-02  0.50446
   1252.    7.987  2.65E-06  4.15E-04  2.24E-06  3.51E-04  0.00E+00  0.00E+00  4.89E-06  7.66E-04  1.04E-02  0.39793
   1254.    7.974  2.66E-06  4.19E-04  2.28E-06  3.59E-04  0.00E+00  0.00E+00  4.95E-06  7.78E-04  1.04E-02  0.40756
   1256.    7.962  2.81E-06  4.44E-04  2.11E-06  3.33E-04  0.00E+00  0.00E+00  4.92E-06  7.77E-04  1.04E-02  0.37815
   1258.    7.949  3.30E-06  5.22E-04  9.47E-07  1.50E-04  0.00E+00  0.00E+00  4.25E-06  6.72E-04  1.04E-02  0.17029
   1260.    7.937  3.16E-06  5.02E-04  2.17E-07  3.44E-05  0.00E+00  0.00E+00  3.38E-06  5.37E-04  1.04E-02  0.03921
   1262.    7.924  3.31E-06  5.27E-04  7.45E-07  1.19E-04  0.00E+00  0.00E+00  4.05E-06  6.45E-04  1.04E-02  0.13569
   1264.    7.911  3.41E-06  5.45E-04  7.18E-07  1.15E-04  0.00E+00  0.00E+00  4.13E-06  6.60E-04  1.04E-02  0.13098
   1266.    7.899  3.36E-06  5.39E-04  1.18E-07  1.89E-05  0.00E+00  0.00E+00  3.48E-06  5.58E-04  1.04E-02  0.02165
   1268.    7.886  3.08E-06  4.94E-04  9.47E-09  1.52E-06  0.00E+00  0.00E+00  3.08E-06  4.96E-04  1.04E-02  0.00174
   1270.    7.874  2.90E-06  4.68E-04  2.06E-09  3.32E-07  0.00E+00  0.00E+00  2.90E-06  4.68E-04  1.04E-02  0.00038
   1272.    7.862  2.94E-06  4.76E-04  9.63E-08  1.56E-05  0.00E+00  0.00E+00  3.04E-06  4.92E-04  1.05E-02  0.01804
   1274.    7.849  3.02E-06  4.90E-04  1.08E-06  1.75E-04  0.00E+00  0.00E+00  4.10E-06  6.65E-04  1.05E-02  0.20270
   1276.    7.837  2.52E-06  4.10E-04  2.24E-06  3.64E-04  0.00E+00  0.00E+00  4.75E-06  7.74E-04  1.05E-02  0.42137
   1278.    7.825  2.51E-06  4.10E-04  2.12E-06  3.47E-04  0.00E+00  0.00E+00  4.63E-06  7.56E-04  1.05E-02  0.40147
   1280.    7.813  3.02E-06  4.95E-04  9.64E-07  1.58E-04  0.00E+00  0.00E+00  3.98E-06  6.53E-04  1.05E-02  0.18291
   1282.    7.800  3.10E-06  5.09E-04  9.66E-07  1.59E-04  0.00E+00  0.00E+00  4.06E-06  6.68E-04  1.05E-02  0.18478
   1284.    7.788  3.17E-06  5.23E-04  7.90E-07  1.30E-04  0.00E+00  0.00E+00  3.96E-06  6.53E-04  1.05E-02  0.15136
   1286.    7.776  3.15E-06  5.21E-04  2.08E-07  3.44E-05  0.00E+00  0.00E+00  3.36E-06  5.56E-04  1.05E-02  0.04008
   1288.    7.764  2.89E-06  4.79E-04  4.06E-08  6.74E-06  0.00E+00  0.00E+00  2.93E-06  4.86E-04  1.05E-02  0.00787
   1290.    7.752  3.25E-06  5.41E-04  1.39E-07  2.32E-05  0.00E+00  0.00E+00  3.39E-06  5.65E-04  1.05E-02  0.02724
   1292.    7.740  3.29E-06  5.49E-04  5.60E-07  9.34E-05  0.00E+00  0.00E+00  3.85E-06  6.42E-04  1.05E-02  0.10981
   1294.    7.728  3.13E-06  5.24E-04  9.39E-07  1.57E-04  0.00E+00  0.00E+00  4.07E-06  6.82E-04  1.05E-02  0.18476
   1296.    7.716  2.98E-06  5.00E-04  5.41E-07  9.08E-05  0.00E+00  0.00E+00  3.52E-06  5.91E-04  1.05E-02  0.10683
   1298.    7.704  2.83E-06  4.76E-04  1.03E-06  1.74E-04  0.00E+00  0.00E+00  3.86E-06  6.51E-04  1.06E-02  0.20586
   1300.    7.692  2.55E-06  4.32E-04  1.88E-06  3.17E-04  0.00E+00  0.00E+00  4.43E-06  7.49E-04  1.06E-02  0.37524
  iv         1305
1                                             RADIANCE(WATTS/CM2-STER-XXX)
0  FREQ   WAVLEN    PATH THERMAL      SURFACE EMISSION    SURFACE REFLECTED     TOTAL RADIANCE   INTEGRAL    TOTAL
  (CM-1) (MICRN)    (CM-1)   (MICRN)    (CM-1)   (MICRN)    (CM-1)   (MICRN)    (CM-1)   (MICRN)    (CM-1)   TRANS

   1302.    7.680  2.49E-06  4.22E-04  1.94E-06  3.30E-04  0.00E+00  0.00E+00  4.43E-06  7.51E-04  1.06E-02  0.39039
   1304.    7.669  2.82E-06  4.79E-04  1.29E-06  2.19E-04  0.00E+00  0.00E+00  4.11E-06  6.98E-04  1.06E-02  0.25959
   1306.    7.657  3.11E-06  5.31E-04  3.35E-07  5.71E-05  0.00E+00  0.00E+00  3.45E-06  5.88E-04  1.06E-02  0.06774
   1308.    7.645  2.92E-06  5.00E-04  4.57E-08  7.81E-06  0.00E+00  0.00E+00  2.97E-06  5.08E-04  1.06E-02  0.00930
   1310.    7.634  3.04E-06  5.22E-04  3.80E-08  6.52E-06  0.00E+00  0.00E+00  3.08E-06  5.29E-04  1.06E-02  0.00779
   1312.    7.622  2.48E-06  4.28E-04  1.69E-08  2.92E-06  0.00E+00  0.00E+00  2.50E-06  4.30E-04  1.06E-02  0.00347
   1314.    7.610  2.07E-06  3.58E-04  5.94E-13  1.03E-10  0.00E+00  0.00E+00  2.07E-06  3.58E-04  1.06E-02  0.00000
   1316.    7.599  2.13E-06  3.69E-04  8.45E-13  1.46E-10  0.00E+00  0.00E+00  2.13E-06  3.69E-04  1.06E-02  0.00000
   1318.    7.587  1.90E-06  3.30E-04  3.09E-12  5.36E-10  0.00E+00  0.00E+00  1.90E-06  3.30E-04  1.06E-02  0.00000
   1320.    7.576  2.03E-06  3.54E-04  1.67E-09  2.91E-07  0.00E+00  0.00E+00  2.03E-06  3.55E-04  1.06E-02  0.00035
   1322.    7.564  2.66E-06  4.66E-04  7.48E-09  1.31E-06  0.00E+00  0.00E+00  2.67E-06  4.67E-04  1.06E-02  0.00158
   1324.    7.553  3.01E-06  5.27E-04  5.85E-08  1.03E-05  0.00E+00  0.00E+00  3.07E-06  5.38E-04  1.06E-02  0.01246
   1326.    7.541  3.12E-06  5.49E-04  1.30E-07  2.29E-05  0.00E+00  0.00E+00  3.25E-06  5.72E-04  1.06E-02  0.02783
   1328.    7.530  2.95E-06  5.20E-04  7.69E-08  1.36E-05  0.00E+00  0.00E+00  3.03E-06  5.34E-04  1.06E-02  0.01644
   1330.    7.519  2.87E-06  5.07E-04  6.17E-08  1.09E-05  0.00E+00  0.00E+00  2.93E-06  5.18E-04  1.07E-02  0.01334
   1332.    7.508  2.95E-06  5.24E-04  7.44E-08  1.32E-05  0.00E+00  0.00E+00  3.03E-06  5.37E-04  1.07E-02  0.01610
   1334.    7.496  2.79E-06  4.96E-04  1.40E-08  2.49E-06  0.00E+00  0.00E+00  2.80E-06  4.98E-04  1.07E-02  0.00304
   1336.    7.485  2.20E-06  3.92E-04  1.64E-09  2.93E-07  0.00E+00  0.00E+00  2.20E-06  3.92E-04  1.07E-02  0.00036
   1338.    7.474  1.55E-06  2.77E-04  3.15E-17  5.63E-15  0.00E+00  0.00E+00  1.55E-06  2.77E-04  1.07E-02  0.00000
   1340.    7.463  1.47E-06  2.65E-04  8.89E-14  1.60E-11  0.00E+00  0.00E+00  1.47E-06  2.65E-04  1.07E-02  0.00000
   1342.    7.452  2.25E-06  4.06E-04  6.82E-10  1.23E-07  0.00E+00  0.00E+00  2.25E-06  4.06E-04  1.07E-02  0.00015
   1344.    7.440  2.76E-06  4.98E-04  7.47E-09  1.35E-06  0.00E+00  0.00E+00  2.76E-06  4.99E-04  1.07E-02  0.00167
   1346.    7.429  2.82E-06  5.10E-04  1.29E-08  2.34E-06  0.00E+00  0.00E+00  2.83E-06  5.13E-04  1.07E-02  0.00290
   1348.    7.418  2.44E-06  4.44E-04  5.31E-09  9.64E-07  0.00E+00  0.00E+00  2.45E-06  4.45E-04  1.07E-02  0.00119
   1350.    7.407  2.30E-06  4.19E-04  3.58E-09  6.53E-07  0.00E+00  0.00E+00  2.30E-06  4.19E-04  1.07E-02  0.00082
   1352.    7.396  2.63E-06  4.80E-04  5.42E-09  9.92E-07  0.00E+00  0.00E+00  2.63E-06  4.81E-04  1.07E-02  0.00124
   1354.    7.386  2.25E-06  4.13E-04  1.73E-09  3.16E-07  0.00E+00  0.00E+00  2.26E-06  4.13E-04  1.07E-02  0.00039
   1356.    7.375  2.19E-06  4.03E-04  1.41E-10  2.59E-08  0.00E+00  0.00E+00  2.19E-06  4.03E-04  1.07E-02  0.00003
   1358.    7.364  2.26E-06  4.17E-04  1.36E-10  2.51E-08  0.00E+00  0.00E+00  2.26E-06  4.17E-04  1.07E-02  0.00003
   1360.    7.353  1.89E-06  3.49E-04  5.44E-12  1.01E-09  0.00E+00  0.00E+00  1.89E-06  3.49E-04  1.07E-02  0.00000
   1362.    7.342  1.35E-06  2.51E-04  7.66E-17  1.42E-14  0.00E+00  0.00E+00  1.35E-06  2.51E-04  1.07E-02  0.00000
   1364.    7.331  1.55E-06  2.89E-04  2.54E-13  4.73E-11  0.00E+00  0.00E+00  1.55E-06  2.89E-04  1.07E-02  0.00000
   1366.    7.321  2.10E-06  3.92E-04  1.32E-12  2.46E-10  0.00E+00  0.00E+00  2.10E-06  3.92E-04  1.07E-02  0.00000
   1368.    7.310  1.81E-06  3.39E-04  8.37E-13  1.57E-10  0.00E+00  0.00E+00  1.81E-06  3.39E-04  1.07E-02  0.00000
   1370.    7.299  1.72E-06  3.23E-04  2.74E-14  5.14E-12  0.00E+00  0.00E+00  1.72E-06  3.23E-04  1.07E-02  0.00000
   1372.    7.289  1.59E-06  2.99E-04  6.16E-16  1.16E-13  0.00E+00  0.00E+00  1.59E-06  2.99E-04  1.07E-02  0.00000
   1374.    7.278  1.14E-06  2.16E-04  7.76E-22  1.46E-19  0.00E+00  0.00E+00  1.14E-06  2.16E-04  1.07E-02  0.00000
   1376.    7.267  1.35E-06  2.55E-04  6.27E-18  1.19E-15  0.00E+00  0.00E+00  1.35E-06  2.55E-04  1.07E-02  0.00000
   1378.    7.257  1.64E-06  3.11E-04  6.17E-16  1.17E-13  0.00E+00  0.00E+00  1.64E-06  3.11E-04  1.08E-02  0.00000
   1380.    7.246  1.79E-06  3.41E-04  1.52E-12  2.90E-10  0.00E+00  0.00E+00  1.79E-06  3.41E-04  1.08E-02  0.00000
   1382.    7.236  2.00E-06  3.82E-04  2.20E-12  4.19E-10  0.00E+00  0.00E+00  2.00E-06  3.82E-04  1.08E-02  0.00000
   1384.    7.225  1.90E-06  3.64E-04  4.71E-13  9.03E-11  0.00E+00  0.00E+00  1.90E-06  3.64E-04  1.08E-02  0.00000
   1386.    7.215  1.38E-06  2.65E-04  1.20E-14  2.31E-12  0.00E+00  0.00E+00  1.38E-06  2.65E-04  1.08E-02  0.00000
   1388.    7.205  1.15E-06  2.22E-04  8.04E-20  1.55E-17  0.00E+00  0.00E+00  1.15E-06  2.22E-04  1.08E-02  0.00000
   1390.    7.194  1.48E-06  2.87E-04  3.03E-20  5.86E-18  0.00E+00  0.00E+00  1.48E-06  2.87E-04  1.08E-02  0.00000
   1392.    7.184  1.44E-06  2.79E-04  2.53E-21  4.90E-19  0.00E+00  0.00E+00  1.44E-06  2.79E-04  1.08E-02  0.00000
   1394.    7.174  1.03E-06  1.99E-04  4.81E-23  9.34E-21  0.00E+00  0.00E+00  1.03E-06  1.99E-04  1.08E-02  0.00000
   1396.    7.163  1.01E-06  1.96E-04  1.53E-23  2.99E-21  0.00E+00  0.00E+00  1.01E-06  1.96E-04  1.08E-02  0.00000
   1398.    7.153  1.02E-06  1.99E-04  3.57E-19  6.98E-17  0.00E+00  0.00E+00  1.02E-06  1.99E-04  1.08E-02  0.00000
   1400.    7.143  1.12E-06  2.20E-04  3.59E-19  7.04E-17  0.00E+00  0.00E+00  1.12E-06  2.20E-04  1.08E-02  0.00000
  iv         1405
1                                             RADIANCE(WATTS/CM2-STER-XXX)
0  FREQ   WAVLEN    PATH THERMAL      SURFACE EMISSION    SURFACE REFLECTED     TOTAL RADIANCE   INTEGRAL    TOTAL
  (CM-1) (MICRN)    (CM-1)   (MICRN)    (CM-1)   (MICRN)    (CM-1)   (MICRN)    (CM-1)   (MICRN)    (CM-1)   TRANS

   1402.    7.133  1.46E-06  2.87E-04  6.10E-21  1.20E-18  0.00E+00  0.00E+00  1.46E-06  2.87E-04  1.08E-02  0.00000
   1404.    7.123  1.24E-06  2.45E-04  1.70E-15  3.36E-13  0.00E+00  0.00E+00  1.24E-06  2.45E-04  1.08E-02  0.00000
   1406.    7.112  1.40E-06  2.76E-04  2.31E-15  4.56E-13  0.00E+00  0.00E+00  1.40E-06  2.76E-04  1.08E-02  0.00000
   1408.    7.102  1.70E-06  3.37E-04  1.80E-15  3.57E-13  0.00E+00  0.00E+00  1.70E-06  3.37E-04  1.08E-02  0.00000
   1410.    7.092  1.51E-06  3.01E-04  6.14E-16  1.22E-13  0.00E+00  0.00E+00  1.51E-06  3.01E-04  1.08E-02  0.00000
   1412.    7.082  1.44E-06  2.87E-04  3.58E-17  7.14E-15  0.00E+00  0.00E+00  1.44E-06  2.87E-04  1.08E-02  0.00000
   1414.    7.072  1.49E-06  2.98E-04  3.10E-17  6.20E-15  0.00E+00  0.00E+00  1.49E-06  2.98E-04  1.08E-02  0.00000
   1416.    7.062  1.16E-06  2.32E-04  2.16E-19  4.33E-17  0.00E+00  0.00E+00  1.16E-06  2.32E-04  1.08E-02  0.00000
   1418.    7.052  8.09E-07  1.63E-04  1.51E-31  3.04E-29  0.00E+00  0.00E+00  8.09E-07  1.63E-04  1.08E-02  0.00000
   1420.    7.042  7.85E-07  1.58E-04  3.36E-41  6.78E-39  0.00E+00  0.00E+00  7.85E-07  1.58E-04  1.08E-02  0.00000
   1422.    7.032  1.02E-06  2.06E-04  1.92E-25  3.88E-23  0.00E+00  0.00E+00  1.02E-06  2.06E-04  1.08E-02  0.00000
   1424.    7.022  1.00E-06  2.04E-04  6.38E-25  1.29E-22  0.00E+00  0.00E+00  1.00E-06  2.04E-04  1.08E-02  0.00000
   1426.    7.013  1.25E-06  2.54E-04  2.80E-24  5.69E-22  0.00E+00  0.00E+00  1.25E-06  2.54E-04  1.08E-02  0.00000
   1428.    7.003  1.14E-06  2.33E-04  5.18E-21  1.06E-18  0.00E+00  0.00E+00  1.14E-06  2.33E-04  1.08E-02  0.00000
   1430.    6.993  9.43E-07  1.93E-04  1.55E-20  3.18E-18  0.00E+00  0.00E+00  9.43E-07  1.93E-04  1.08E-02  0.00000
   1432.    6.983  1.06E-06  2.18E-04  5.18E-21  1.06E-18  0.00E+00  0.00E+00  1.06E-06  2.18E-04  1.08E-02  0.00000
   1434.    6.974  9.95E-07  2.05E-04  1.95E-30  4.01E-28  0.00E+00  0.00E+00  9.95E-07  2.05E-04  1.08E-02  0.00000
   1436.    6.964  7.27E-07  1.50E-04  1.04E-43  2.14E-41  0.00E+00  0.00E+00  7.27E-07  1.50E-04  1.08E-02  0.00000
   1438.    6.954  8.71E-07  1.80E-04  5.16E-28  1.07E-25  0.00E+00  0.00E+00  8.71E-07  1.80E-04  1.08E-02  0.00000
   1440.    6.944  1.26E-06  2.61E-04  7.28E-22  1.51E-19  0.00E+00  0.00E+00  1.26E-06  2.61E-04  1.08E-02  0.00000
   1442.    6.935  1.39E-06  2.90E-04  1.38E-20  2.86E-18  0.00E+00  0.00E+00  1.39E-06  2.90E-04  1.08E-02  0.00000
   1444.    6.925  1.34E-06  2.80E-04  1.80E-20  3.76E-18  0.00E+00  0.00E+00  1.34E-06  2.80E-04  1.08E-02  0.00000
   1446.    6.916  1.03E-06  2.15E-04  2.94E-21  6.15E-19  0.00E+00  0.00E+00  1.03E-06  2.15E-04  1.08E-02  0.00000
   1448.    6.906  8.75E-07  1.83E-04  2.18E-22  4.57E-20  0.00E+00  0.00E+00  8.75E-07  1.83E-04  1.08E-02  0.00000
   1450.    6.897  1.04E-06  2.19E-04  7.26E-23  1.53E-20  0.00E+00  0.00E+00  1.04E-06  2.19E-04  1.08E-02  0.00000
   1452.    6.887  9.71E-07  2.05E-04  3.54E-32  7.46E-30  0.00E+00  0.00E+00  9.71E-07  2.05E-04  1.08E-02  0.00000
   1454.    6.878  8.12E-07  1.72E-04  9.92E-36  2.10E-33  0.00E+00  0.00E+00  8.12E-07  1.72E-04  1.08E-02  0.00000
   1456.    6.868  5.43E-07  1.15E-04  0.00E+00  0.00E+00  0.00E+00  0.00E+00  5.43E-07  1.15E-04  1.08E-02  0.00000
   1458.    6.859  4.89E-07  1.04E-04  0.00E+00  0.00E+00  0.00E+00  0.00E+00  4.89E-07  1.04E-04  1.08E-02  0.00000
   1460.    6.849  7.54E-07  1.61E-04  0.00E+00  0.00E+00  0.00E+00  0.00E+00  7.54E-07  1.61E-04  1.08E-02  0.00000
   1462.    6.840  9.14E-07  1.95E-04  0.00E+00  0.00E+00  0.00E+00  0.00E+00  9.14E-07  1.95E-04  1.08E-02  0.00000
   1464.    6.831  7.03E-07  1.51E-04  3.25E-28  6.97E-26  0.00E+00  0.00E+00  7.03E-07  1.51E-04  1.08E-02  0.00000
   1466.    6.821  7.45E-07  1.60E-04  3.25E-28  6.99E-26  0.00E+00  0.00E+00  7.45E-07  1.60E-04  1.09E-02  0.00000
   1468.    6.812  9.44E-07  2.04E-04  4.87E-40  1.05E-37  0.00E+00  0.00E+00  9.44E-07  2.04E-04  1.09E-02  0.00000
   1470.    6.803  8.27E-07  1.79E-04  1.93E-40  4.18E-38  0.00E+00  0.00E+00  8.27E-07  1.79E-04  1.09E-02  0.00000
   1472.    6.793  5.50E-07  1.19E-04  0.00E+00  0.00E+00  0.00E+00  0.00E+00  5.50E-07  1.19E-04  1.09E-02  0.00000
   1474.    6.784  5.27E-07  1.14E-04  0.00E+00  0.00E+00  0.00E+00  0.00E+00  5.27E-07  1.14E-04  1.09E-02  0.00000
   1476.    6.775  6.39E-07  1.39E-04  0.00E+00  0.00E+00  0.00E+00  0.00E+00  6.39E-07  1.39E-04  1.09E-02  0.00000
   1478.    6.766  8.85E-07  1.93E-04  5.93E-35  1.30E-32  0.00E+00  0.00E+00  8.85E-07  1.93E-04  1.09E-02  0.00000
   1480.    6.757  9.23E-07  2.02E-04  7.38E-33  1.62E-30  0.00E+00  0.00E+00  9.23E-07  2.02E-04  1.09E-02  0.00000
   1482.    6.748  8.82E-07  1.94E-04  8.28E-33  1.82E-30  0.00E+00  0.00E+00  8.82E-07  1.94E-04  1.09E-02  0.00000
   1484.    6.739  9.40E-07  2.07E-04  1.04E-33  2.29E-31  0.00E+00  0.00E+00  9.40E-07  2.07E-04  1.09E-02  0.00000
   1486.    6.729  7.18E-07  1.59E-04  3.76E-35  8.30E-33  0.00E+00  0.00E+00  7.18E-07  1.59E-04  1.09E-02  0.00000
   1488.    6.720  5.46E-07  1.21E-04  0.00E+00  0.00E+00  0.00E+00  0.00E+00  5.46E-07  1.21E-04  1.09E-02  0.00000
   1490.    6.711  5.20E-07  1.15E-04  0.00E+00  0.00E+00  0.00E+00  0.00E+00  5.20E-07  1.15E-04  1.09E-02  0.00000
   1492.    6.702  6.85E-07  1.53E-04  0.00E+00  0.00E+00  0.00E+00  0.00E+00  6.85E-07  1.53E-04  1.09E-02  0.00000
   1494.    6.693  7.36E-07  1.64E-04  8.97E-44  2.00E-41  0.00E+00  0.00E+00  7.36E-07  1.64E-04  1.09E-02  0.00000
   1496.    6.684  5.30E-07  1.19E-04  2.70E-43  6.05E-41  0.00E+00  0.00E+00  5.30E-07  1.19E-04  1.09E-02  0.00000
   1498.    6.676  4.77E-07  1.07E-04  8.97E-44  2.01E-41  0.00E+00  0.00E+00  4.77E-07  1.07E-04  1.09E-02  0.00000
   1500.    6.667  5.70E-07  1.28E-04  0.00E+00  0.00E+00  0.00E+00  0.00E+00  5.70E-07  1.28E-04  1.09E-02  0.00000
  iv         1505
1                                             RADIANCE(WATTS/CM2-STER-XXX)
0  FREQ   WAVLEN    PATH THERMAL      SURFACE EMISSION    SURFACE REFLECTED     TOTAL RADIANCE   INTEGRAL    TOTAL
  (CM-1) (MICRN)    (CM-1)   (MICRN)    (CM-1)   (MICRN)    (CM-1)   (MICRN)    (CM-1)   (MICRN)    (CM-1)   TRANS

   1502.    6.658  6.53E-07  1.47E-04  0.00E+00  0.00E+00  0.00E+00  0.00E+00  6.53E-07  1.47E-04  1.09E-02  0.00000
   1504.    6.649  5.59E-07  1.26E-04  0.00E+00  0.00E+00  0.00E+00  0.00E+00  5.59E-07  1.26E-04  1.09E-02  0.00000
   1506.    6.640  3.57E-07  8.10E-05  0.00E+00  0.00E+00  0.00E+00  0.00E+00  3.57E-07  8.10E-05  1.09E-02  0.00000
   1508.    6.631  3.57E-07  8.13E-05  0.00E+00  0.00E+00  0.00E+00  0.00E+00  3.57E-07  8.13E-05  1.09E-02  0.00000
   1510.    6.623  4.54E-07  1.04E-04  0.00E+00  0.00E+00  0.00E+00  0.00E+00  4.54E-07  1.04E-04  1.09E-02  0.00000
   1512.    6.614  5.29E-07  1.21E-04  0.00E+00  0.00E+00  0.00E+00  0.00E+00  5.29E-07  1.21E-04  1.09E-02  0.00000
   1514.    6.605  5.65E-07  1.30E-04  0.00E+00  0.00E+00  0.00E+00  0.00E+00  5.65E-07  1.30E-04  1.09E-02  0.00000
   1516.    6.596  4.53E-07  1.04E-04  0.00E+00  0.00E+00  0.00E+00  0.00E+00  4.53E-07  1.04E-04  1.09E-02  0.00000
   1518.    6.588  4.34E-07  1.00E-04  0.00E+00  0.00E+00  0.00E+00  0.00E+00  4.34E-07  1.00E-04  1.09E-02  0.00000
   1520.    6.579  3.97E-07  9.17E-05  0.00E+00  0.00E+00  0.00E+00  0.00E+00  3.97E-07  9.17E-05  1.09E-02  0.00000
   1522.    6.570  3.52E-07  8.16E-05  0.00E+00  0.00E+00  0.00E+00  0.00E+00  3.52E-07  8.16E-05  1.09E-02  0.00000
   1524.    6.562  4.09E-07  9.50E-05  0.00E+00  0.00E+00  0.00E+00  0.00E+00  4.09E-07  9.50E-05  1.09E-02  0.00000
   1526.    6.553  4.54E-07  1.06E-04  0.00E+00  0.00E+00  0.00E+00  0.00E+00  4.54E-07  1.06E-04  1.09E-02  0.00000
   1528.    6.545  5.05E-07  1.18E-04  0.00E+00  0.00E+00  0.00E+00  0.00E+00  5.05E-07  1.18E-04  1.09E-02  0.00000
   1530.    6.536  5.69E-07  1.33E-04  0.00E+00  0.00E+00  0.00E+00  0.00E+00  5.69E-07  1.33E-04  1.09E-02  0.00000
   1532.    6.527  4.75E-07  1.12E-04  0.00E+00  0.00E+00  0.00E+00  0.00E+00  4.75E-07  1.12E-04  1.09E-02  0.00000
   1534.    6.519  4.03E-07  9.48E-05  0.00E+00  0.00E+00  0.00E+00  0.00E+00  4.03E-07  9.48E-05  1.09E-02  0.00000
   1536.    6.510  4.93E-07  1.16E-04  0.00E+00  0.00E+00  0.00E+00  0.00E+00  4.93E-07  1.16E-04  1.09E-02  0.00000
   1538.    6.502  3.72E-07  8.81E-05  0.00E+00  0.00E+00  0.00E+00  0.00E+00  3.72E-07  8.81E-05  1.09E-02  0.00000
   1540.    6.494  2.64E-07  6.27E-05  0.00E+00  0.00E+00  0.00E+00  0.00E+00  2.64E-07  6.27E-05  1.09E-02  0.00000
   1542.    6.485  3.01E-07  7.15E-05  0.00E+00  0.00E+00  0.00E+00  0.00E+00  3.01E-07  7.15E-05  1.09E-02  0.00000
   1544.    6.477  3.73E-07  8.89E-05  0.00E+00  0.00E+00  0.00E+00  0.00E+00  3.73E-07  8.89E-05  1.09E-02  0.00000
   1546.    6.468  4.73E-07  1.13E-04  0.00E+00  0.00E+00  0.00E+00  0.00E+00  4.73E-07  1.13E-04  1.09E-02  0.00000
   1548.    6.460  5.56E-07  1.33E-04  0.00E+00  0.00E+00  0.00E+00  0.00E+00  5.56E-07  1.33E-04  1.09E-02  0.00000
   1550.    6.452  4.95E-07  1.19E-04  0.00E+00  0.00E+00  0.00E+00  0.00E+00  4.95E-07  1.19E-04  1.09E-02  0.00000
   1552.    6.443  4.84E-07  1.16E-04  0.00E+00  0.00E+00  0.00E+00  0.00E+00  4.84E-07  1.16E-04  1.09E-02  0.00000
   1554.    6.435  4.01E-07  9.69E-05  0.00E+00  0.00E+00  0.00E+00  0.00E+00  4.01E-07  9.69E-05  1.09E-02  0.00000
   1556.    6.427  3.49E-07  8.45E-05  0.00E+00  0.00E+00  0.00E+00  0.00E+00  3.49E-07  8.45E-05  1.09E-02  0.00000
   1558.    6.418  2.55E-07  6.19E-05  0.00E+00  0.00E+00  0.00E+00  0.00E+00  2.55E-07  6.19E-05  1.09E-02  0.00000
   1560.    6.410  2.62E-07  6.38E-05  0.00E+00  0.00E+00  0.00E+00  0.00E+00  2.62E-07  6.38E-05  1.09E-02  0.00000
   1562.    6.402  4.16E-07  1.01E-04  0.00E+00  0.00E+00  0.00E+00  0.00E+00  4.16E-07  1.01E-04  1.09E-02  0.00000
   1564.    6.394  4.47E-07  1.09E-04  0.00E+00  0.00E+00  0.00E+00  0.00E+00  4.47E-07  1.09E-04  1.09E-02  0.00000
   1566.    6.386  4.77E-07  1.17E-04  0.00E+00  0.00E+00  0.00E+00  0.00E+00  4.77E-07  1.17E-04  1.09E-02  0.00000
   1568.    6.378  4.34E-07  1.07E-04  0.00E+00  0.00E+00  0.00E+00  0.00E+00  4.34E-07  1.07E-04  1.09E-02  0.00000
   1570.    6.369  3.66E-07  9.03E-05  0.00E+00  0.00E+00  0.00E+00  0.00E+00  3.66E-07  9.03E-05  1.09E-02  0.00000
   1572.    6.361  4.92E-07  1.22E-04  0.00E+00  0.00E+00  0.00E+00  0.00E+00  4.92E-07  1.22E-04  1.09E-02  0.00000
   1574.    6.353  4.53E-07  1.12E-04  1.24E-33  3.06E-31  0.00E+00  0.00E+00  4.53E-07  1.12E-04  1.09E-02  0.00000
   1576.    6.345  3.09E-07  7.68E-05  3.71E-33  9.22E-31  0.00E+00  0.00E+00  3.09E-07  7.68E-05  1.09E-02  0.00000
   1578.    6.337  4.04E-07  1.01E-04  1.24E-33  3.08E-31  0.00E+00  0.00E+00  4.04E-07  1.01E-04  1.09E-02  0.00000
   1580.    6.329  5.97E-07  1.49E-04  5.32E-35  1.33E-32  0.00E+00  0.00E+00  5.97E-07  1.49E-04  1.09E-02  0.00000
   1582.    6.321  6.77E-07  1.69E-04  2.33E-29  5.84E-27  0.00E+00  0.00E+00  6.77E-07  1.69E-04  1.09E-02  0.00000
   1584.    6.313  7.37E-07  1.85E-04  4.28E-26  1.07E-23  0.00E+00  0.00E+00  7.37E-07  1.85E-04  1.09E-02  0.00000
   1586.    6.305  7.73E-07  1.95E-04  8.06E-25  2.03E-22  0.00E+00  0.00E+00  7.73E-07  1.95E-04  1.09E-02  0.00000
   1588.    6.297  7.46E-07  1.88E-04  1.75E-24  4.42E-22  0.00E+00  0.00E+00  7.46E-07  1.88E-04  1.09E-02  0.00000
   1590.    6.289  6.53E-07  1.65E-04  5.13E-25  1.30E-22  0.00E+00  0.00E+00  6.53E-07  1.65E-04  1.09E-02  0.00000
   1592.    6.281  6.19E-07  1.57E-04  1.30E-25  3.29E-23  0.00E+00  0.00E+00  6.19E-07  1.57E-04  1.09E-02  0.00000
   1594.    6.274  5.65E-07  1.43E-04  3.84E-25  9.77E-23  0.00E+00  0.00E+00  5.65E-07  1.43E-04  1.09E-02  0.00000
   1596.    6.266  5.92E-07  1.51E-04  1.51E-23  3.84E-21  0.00E+00  0.00E+00  5.92E-07  1.51E-04  1.09E-02  0.00000
   1598.    6.258  7.31E-07  1.87E-04  1.24E-22  3.16E-20  0.00E+00  0.00E+00  7.31E-07  1.87E-04  1.09E-02  0.00000
   1600.    6.250  6.93E-07  1.77E-04  9.52E-23  2.44E-20  0.00E+00  0.00E+00  6.93E-07  1.77E-04  1.09E-02  0.00000
  iv         1605
1                                             RADIANCE(WATTS/CM2-STER-XXX)
0  FREQ   WAVLEN    PATH THERMAL      SURFACE EMISSION    SURFACE REFLECTED     TOTAL RADIANCE   INTEGRAL    TOTAL
  (CM-1) (MICRN)    (CM-1)   (MICRN)    (CM-1)   (MICRN)    (CM-1)   (MICRN)    (CM-1)   (MICRN)    (CM-1)   TRANS

   1602.    6.242  5.60E-07  1.44E-04  7.28E-25  1.87E-22  0.00E+00  0.00E+00  5.60E-07  1.44E-04  1.09E-02  0.00000
   1604.    6.234  6.03E-07  1.55E-04  3.29E-26  8.46E-24  0.00E+00  0.00E+00  6.03E-07  1.55E-04  1.09E-02  0.00000
   1606.    6.227  6.02E-07  1.55E-04  3.28E-26  8.45E-24  0.00E+00  0.00E+00  6.02E-07  1.55E-04  1.09E-02  0.00000
   1608.    6.219  4.84E-07  1.25E-04  2.36E-31  6.11E-29  0.00E+00  0.00E+00  4.84E-07  1.25E-04  1.09E-02  0.00000
   1610.    6.211  5.11E-07  1.32E-04  1.54E-31  4.00E-29  0.00E+00  0.00E+00  5.11E-07  1.32E-04  1.09E-02  0.00000
   1612.    6.203  5.71E-07  1.48E-04  1.48E-34  3.83E-32  0.00E+00  0.00E+00  5.71E-07  1.48E-04  1.09E-02  0.00000
   1614.    6.196  4.72E-07  1.23E-04  7.19E-37  1.87E-34  0.00E+00  0.00E+00  4.72E-07  1.23E-04  1.09E-02  0.00000
   1616.    6.188  2.96E-07  7.74E-05  2.61E-27  6.83E-25  0.00E+00  0.00E+00  2.96E-07  7.74E-05  1.09E-02  0.00000
   1618.    6.180  3.23E-07  8.47E-05  2.61E-27  6.85E-25  0.00E+00  0.00E+00  3.23E-07  8.47E-05  1.09E-02  0.00000
   1620.    6.173  4.41E-07  1.16E-04  0.00E+00  0.00E+00  0.00E+00  0.00E+00  4.41E-07  1.16E-04  1.09E-02  0.00000
   1622.    6.165  3.74E-07  9.84E-05  1.70E-42  4.47E-40  0.00E+00  0.00E+00  3.74E-07  9.84E-05  1.09E-02  0.00000
   1624.    6.158  3.13E-07  8.24E-05  5.10E-42  1.35E-39  0.00E+00  0.00E+00  3.13E-07  8.24E-05  1.09E-02  0.00000
   1626.    6.150  3.63E-07  9.59E-05  1.80E-39  4.76E-37  0.00E+00  0.00E+00  3.63E-07  9.59E-05  1.09E-02  0.00000
   1628.    6.143  3.58E-07  9.50E-05  5.39E-39  1.43E-36  0.00E+00  0.00E+00  3.58E-07  9.50E-05  1.09E-02  0.00000
   1630.    6.135  4.64E-07  1.23E-04  1.80E-39  4.77E-37  0.00E+00  0.00E+00  4.64E-07  1.23E-04  1.09E-02  0.00000
   1632.    6.127  4.61E-07  1.23E-04  0.00E+00  0.00E+00  0.00E+00  0.00E+00  4.61E-07  1.23E-04  1.09E-02  0.00000
   1634.    6.120  3.03E-07  8.10E-05  0.00E+00  0.00E+00  0.00E+00  0.00E+00  3.03E-07  8.10E-05  1.09E-02  0.00000
   1636.    6.112  2.18E-07  5.82E-05  0.00E+00  0.00E+00  0.00E+00  0.00E+00  2.18E-07  5.82E-05  1.09E-02  0.00000
   1638.    6.105  2.90E-07  7.77E-05  0.00E+00  0.00E+00  0.00E+00  0.00E+00  2.90E-07  7.77E-05  1.09E-02  0.00000
   1640.    6.098  3.83E-07  1.03E-04  0.00E+00  0.00E+00  0.00E+00  0.00E+00  3.83E-07  1.03E-04  1.09E-02  0.00000
   1642.    6.090  4.13E-07  1.11E-04  0.00E+00  0.00E+00  0.00E+00  0.00E+00  4.13E-07  1.11E-04  1.09E-02  0.00000
   1644.    6.083  3.44E-07  9.29E-05  0.00E+00  0.00E+00  0.00E+00  0.00E+00  3.44E-07  9.29E-05  1.09E-02  0.00000
   1646.    6.075  2.22E-07  6.00E-05  0.00E+00  0.00E+00  0.00E+00  0.00E+00  2.22E-07  6.00E-05  1.09E-02  0.00000
   1648.    6.068  2.35E-07  6.37E-05  0.00E+00  0.00E+00  0.00E+00  0.00E+00  2.35E-07  6.37E-05  1.09E-02  0.00000
   1650.    6.061  2.74E-07  7.46E-05  0.00E+00  0.00E+00  0.00E+00  0.00E+00  2.74E-07  7.46E-05  1.09E-02  0.00000
   1652.    6.053  1.90E-07  5.19E-05  0.00E+00  0.00E+00  0.00E+00  0.00E+00  1.90E-07  5.19E-05  1.09E-02  0.00000
   1654.    6.046  1.80E-07  4.92E-05  0.00E+00  0.00E+00  0.00E+00  0.00E+00  1.80E-07  4.92E-05  1.09E-02  0.00000
   1656.    6.039  2.95E-07  8.09E-05  0.00E+00  0.00E+00  0.00E+00  0.00E+00  2.95E-07  8.09E-05  1.09E-02  0.00000
   1658.    6.031  4.05E-07  1.11E-04  0.00E+00  0.00E+00  0.00E+00  0.00E+00  4.05E-07  1.11E-04  1.09E-02  0.00000
   1660.    6.024  3.98E-07  1.10E-04  0.00E+00  0.00E+00  0.00E+00  0.00E+00  3.98E-07  1.10E-04  1.09E-02  0.00000
   1662.    6.017  2.91E-07  8.03E-05  1.40E-45  3.87E-43  0.00E+00  0.00E+00  2.91E-07  8.03E-05  1.09E-02  0.00000
   1664.    6.010  3.28E-07  9.09E-05  1.40E-45  3.88E-43  0.00E+00  0.00E+00  3.28E-07  9.09E-05  1.09E-02  0.00000
   1666.    6.002  3.92E-07  1.09E-04  0.00E+00  0.00E+00  0.00E+00  0.00E+00  3.92E-07  1.09E-04  1.09E-02  0.00000
   1668.    5.995  2.78E-07  7.72E-05  0.00E+00  0.00E+00  0.00E+00  0.00E+00  2.78E-07  7.72E-05  1.09E-02  0.00000
   1670.    5.988  2.11E-07  5.88E-05  0.00E+00  0.00E+00  0.00E+00  0.00E+00  2.11E-07  5.88E-05  1.09E-02  0.00000
   1672.    5.981  2.61E-07  7.30E-05  0.00E+00  0.00E+00  0.00E+00  0.00E+00  2.61E-07  7.30E-05  1.09E-02  0.00000
   1674.    5.974  2.67E-07  7.49E-05  0.00E+00  0.00E+00  0.00E+00  0.00E+00  2.67E-07  7.49E-05  1.09E-02  0.00000
   1676.    5.967  2.47E-07  6.95E-05  0.00E+00  0.00E+00  0.00E+00  0.00E+00  2.47E-07  6.95E-05  1.10E-02  0.00000
   1678.    5.959  3.15E-07  8.88E-05  0.00E+00  0.00E+00  0.00E+00  0.00E+00  3.15E-07  8.88E-05  1.10E-02  0.00000
   1680.    5.952  2.93E-07  8.28E-05  0.00E+00  0.00E+00  0.00E+00  0.00E+00  2.93E-07  8.28E-05  1.10E-02  0.00000
   1682.    5.945  2.47E-07  6.99E-05  0.00E+00  0.00E+00  0.00E+00  0.00E+00  2.47E-07  6.99E-05  1.10E-02  0.00000
   1684.    5.938  1.73E-07  4.91E-05  0.00E+00  0.00E+00  0.00E+00  0.00E+00  1.73E-07  4.91E-05  1.10E-02  0.00000
   1686.    5.931  2.22E-07  6.32E-05  0.00E+00  0.00E+00  0.00E+00  0.00E+00  2.22E-07  6.32E-05  1.10E-02  0.00000
   1688.    5.924  2.75E-07  7.84E-05  0.00E+00  0.00E+00  0.00E+00  0.00E+00  2.75E-07  7.84E-05  1.10E-02  0.00000
   1690.    5.917  2.87E-07  8.21E-05  0.00E+00  0.00E+00  0.00E+00  0.00E+00  2.87E-07  8.21E-05  1.10E-02  0.00000
   1692.    5.910  3.20E-07  9.15E-05  0.00E+00  0.00E+00  0.00E+00  0.00E+00  3.20E-07  9.15E-05  1.10E-02  0.00000
   1694.    5.903  2.53E-07  7.26E-05  0.00E+00  0.00E+00  0.00E+00  0.00E+00  2.53E-07  7.26E-05  1.10E-02  0.00000
   1696.    5.896  1.81E-07  5.21E-05  0.00E+00  0.00E+00  0.00E+00  0.00E+00  1.81E-07  5.21E-05  1.10E-02  0.00000
   1698.    5.889  1.87E-07  5.39E-05  0.00E+00  0.00E+00  0.00E+00  0.00E+00  1.87E-07  5.39E-05  1.10E-02  0.00000
   1700.    5.882  1.52E-07  4.38E-05  0.00E+00  0.00E+00  0.00E+00  0.00E+00  1.52E-07  4.38E-05  1.10E-02  0.00000
  iv         1705
1                                             RADIANCE(WATTS/CM2-STER-XXX)
0  FREQ   WAVLEN    PATH THERMAL      SURFACE EMISSION    SURFACE REFLECTED     TOTAL RADIANCE   INTEGRAL    TOTAL
  (CM-1) (MICRN)    (CM-1)   (MICRN)    (CM-1)   (MICRN)    (CM-1)   (MICRN)    (CM-1)   (MICRN)    (CM-1)   TRANS

   1702.    5.875  1.99E-07  5.77E-05  0.00E+00  0.00E+00  0.00E+00  0.00E+00  1.99E-07  5.77E-05  1.10E-02  0.00000
   1704.    5.869  2.18E-07  6.32E-05  0.00E+00  0.00E+00  0.00E+00  0.00E+00  2.18E-07  6.32E-05  1.10E-02  0.00000
   1706.    5.862  2.09E-07  6.09E-05  0.00E+00  0.00E+00  0.00E+00  0.00E+00  2.09E-07  6.09E-05  1.10E-02  0.00000
   1708.    5.855  2.87E-07  8.36E-05  0.00E+00  0.00E+00  0.00E+00  0.00E+00  2.87E-07  8.36E-05  1.10E-02  0.00000
   1710.    5.848  3.15E-07  9.21E-05  0.00E+00  0.00E+00  0.00E+00  0.00E+00  3.15E-07  9.21E-05  1.10E-02  0.00000
   1712.    5.841  3.15E-07  9.23E-05  0.00E+00  0.00E+00  0.00E+00  0.00E+00  3.15E-07  9.23E-05  1.10E-02  0.00000
   1714.    5.834  2.43E-07  7.15E-05  0.00E+00  0.00E+00  0.00E+00  0.00E+00  2.43E-07  7.15E-05  1.10E-02  0.00000
   1716.    5.828  1.81E-07  5.34E-05  0.00E+00  0.00E+00  0.00E+00  0.00E+00  1.81E-07  5.34E-05  1.10E-02  0.00000
   1718.    5.821  1.74E-07  5.14E-05  0.00E+00  0.00E+00  0.00E+00  0.00E+00  1.74E-07  5.14E-05  1.10E-02  0.00000
   1720.    5.814  2.69E-07  7.95E-05  0.00E+00  0.00E+00  0.00E+00  0.00E+00  2.69E-07  7.95E-05  1.10E-02  0.00000
   1722.    5.807  3.30E-07  9.79E-05  2.21E-40  6.55E-38  0.00E+00  0.00E+00  3.30E-07  9.79E-05  1.10E-02  0.00000
   1724.    5.800  3.61E-07  1.07E-04  9.09E-35  2.70E-32  0.00E+00  0.00E+00  3.61E-07  1.07E-04  1.10E-02  0.00000
   1726.    5.794  3.98E-07  1.19E-04  2.44E-34  7.26E-32  0.00E+00  0.00E+00  3.98E-07  1.19E-04  1.10E-02  0.00000
   1728.    5.787  3.58E-07  1.07E-04  7.71E-35  2.30E-32  0.00E+00  0.00E+00  3.58E-07  1.07E-04  1.10E-02  0.00000
   1730.    5.780  2.67E-07  7.98E-05  7.97E-40  2.39E-37  0.00E+00  0.00E+00  2.67E-07  7.98E-05  1.10E-02  0.00000
   1732.    5.774  2.09E-07  6.26E-05  0.00E+00  0.00E+00  0.00E+00  0.00E+00  2.09E-07  6.26E-05  1.10E-02  0.00000
   1734.    5.767  1.60E-07  4.80E-05  0.00E+00  0.00E+00  0.00E+00  0.00E+00  1.60E-07  4.80E-05  1.10E-02  0.00000
   1736.    5.760  2.18E-07  6.57E-05  0.00E+00  0.00E+00  0.00E+00  0.00E+00  2.18E-07  6.57E-05  1.10E-02  0.00000
   1738.    5.754  2.29E-07  6.92E-05  1.10E-39  3.32E-37  0.00E+00  0.00E+00  2.29E-07  6.92E-05  1.10E-02  0.00000
   1740.    5.747  2.05E-07  6.20E-05  3.29E-39  9.97E-37  0.00E+00  0.00E+00  2.05E-07  6.20E-05  1.10E-02  0.00000
   1742.    5.741  2.50E-07  7.58E-05  1.10E-39  3.33E-37  0.00E+00  0.00E+00  2.50E-07  7.58E-05  1.10E-02  0.00000
   1744.    5.734  2.37E-07  7.19E-05  0.00E+00  0.00E+00  0.00E+00  0.00E+00  2.37E-07  7.19E-05  1.10E-02  0.00000
   1746.    5.727  2.32E-07  7.09E-05  0.00E+00  0.00E+00  0.00E+00  0.00E+00  2.32E-07  7.09E-05  1.10E-02  0.00000
   1748.    5.721  1.99E-07  6.09E-05  0.00E+00  0.00E+00  0.00E+00  0.00E+00  1.99E-07  6.09E-05  1.10E-02  0.00000
   1750.    5.714  1.97E-07  6.03E-05  1.88E-41  5.76E-39  0.00E+00  0.00E+00  1.97E-07  6.03E-05  1.10E-02  0.00000
   1752.    5.708  2.51E-07  7.70E-05  6.76E-36  2.08E-33  0.00E+00  0.00E+00  2.51E-07  7.70E-05  1.10E-02  0.00000
   1754.    5.701  3.36E-07  1.03E-04  2.04E-35  6.27E-33  0.00E+00  0.00E+00  3.36E-07  1.03E-04  1.10E-02  0.00000
   1756.    5.695  2.91E-07  8.97E-05  2.82E-27  8.70E-25  0.00E+00  0.00E+00  2.91E-07  8.97E-05  1.10E-02  0.00000
   1758.    5.688  2.83E-07  8.75E-05  2.82E-27  8.72E-25  0.00E+00  0.00E+00  2.83E-07  8.75E-05  1.10E-02  0.00000
   1760.    5.682  2.78E-07  8.61E-05  4.76E-25  1.47E-22  0.00E+00  0.00E+00  2.78E-07  8.61E-05  1.10E-02  0.00000
   1762.    5.675  2.30E-07  7.13E-05  1.43E-24  4.43E-22  0.00E+00  0.00E+00  2.30E-07  7.13E-05  1.10E-02  0.00000
   1764.    5.669  3.19E-07  9.92E-05  4.76E-25  1.48E-22  0.00E+00  0.00E+00  3.19E-07  9.92E-05  1.10E-02  0.00000
   1766.    5.663  3.46E-07  1.08E-04  1.87E-30  5.84E-28  0.00E+00  0.00E+00  3.46E-07  1.08E-04  1.10E-02  0.00000
   1768.    5.656  2.56E-07  7.99E-05  5.40E-31  1.69E-28  0.00E+00  0.00E+00  2.56E-07  7.99E-05  1.10E-02  0.00000
   1770.    5.650  2.03E-07  6.36E-05  2.56E-37  8.02E-35  0.00E+00  0.00E+00  2.03E-07  6.36E-05  1.10E-02  0.00000
   1772.    5.643  1.51E-07  4.73E-05  3.25E-38  1.02E-35  0.00E+00  0.00E+00  1.51E-07  4.73E-05  1.10E-02  0.00000
   1774.    5.637  1.92E-07  6.04E-05  2.06E-34  6.47E-32  0.00E+00  0.00E+00  1.92E-07  6.04E-05  1.10E-02  0.00000
   1776.    5.631  2.67E-07  8.42E-05  8.53E-31  2.69E-28  0.00E+00  0.00E+00  2.67E-07  8.42E-05  1.10E-02  0.00000
   1778.    5.624  3.04E-07  9.60E-05  2.56E-30  8.08E-28  0.00E+00  0.00E+00  3.04E-07  9.60E-05  1.10E-02  0.00000
   1780.    5.618  2.46E-07  7.79E-05  6.63E-29  2.10E-26  0.00E+00  0.00E+00  2.46E-07  7.79E-05  1.10E-02  0.00000
   1782.    5.612  2.77E-07  8.78E-05  1.63E-27  5.19E-25  0.00E+00  0.00E+00  2.77E-07  8.78E-05  1.10E-02  0.00000
   1784.    5.605  3.04E-07  9.66E-05  7.72E-25  2.46E-22  0.00E+00  0.00E+00  3.04E-07  9.66E-05  1.10E-02  0.00000
   1786.    5.599  3.54E-07  1.13E-04  5.85E-21  1.87E-18  0.00E+00  0.00E+00  3.54E-07  1.13E-04  1.10E-02  0.00000
   1788.    5.593  3.72E-07  1.19E-04  5.86E-21  1.87E-18  0.00E+00  0.00E+00  3.72E-07  1.19E-04  1.10E-02  0.00000
   1790.    5.587  2.57E-07  8.23E-05  4.32E-24  1.38E-21  0.00E+00  0.00E+00  2.57E-07  8.23E-05  1.10E-02  0.00000
   1792.    5.580  1.67E-07  5.36E-05  2.02E-22  6.49E-20  0.00E+00  0.00E+00  1.67E-07  5.36E-05  1.10E-02  0.00000
   1794.    5.574  1.95E-07  6.29E-05  2.02E-22  6.51E-20  0.00E+00  0.00E+00  1.95E-07  6.29E-05  1.10E-02  0.00000
   1796.    5.568  2.44E-07  7.88E-05  8.33E-31  2.69E-28  0.00E+00  0.00E+00  2.44E-07  7.88E-05  1.10E-02  0.00000
   1798.    5.562  2.63E-07  8.50E-05  8.10E-22  2.62E-19  0.00E+00  0.00E+00  2.63E-07  8.50E-05  1.10E-02  0.00000
   1800.    5.556  2.07E-07  6.70E-05  2.43E-21  7.87E-19  0.00E+00  0.00E+00  2.07E-07  6.70E-05  1.10E-02  0.00000
  iv         1805
1                                             RADIANCE(WATTS/CM2-STER-XXX)
0  FREQ   WAVLEN    PATH THERMAL      SURFACE EMISSION    SURFACE REFLECTED     TOTAL RADIANCE   INTEGRAL    TOTAL
  (CM-1) (MICRN)    (CM-1)   (MICRN)    (CM-1)   (MICRN)    (CM-1)   (MICRN)    (CM-1)   (MICRN)    (CM-1)   TRANS

   1802.    5.549  2.56E-07  8.31E-05  3.58E-19  1.16E-16  0.00E+00  0.00E+00  2.56E-07  8.31E-05  1.10E-02  0.00000
   1804.    5.543  3.62E-07  1.18E-04  4.86E-18  1.58E-15  0.00E+00  0.00E+00  3.62E-07  1.18E-04  1.10E-02  0.00000
   1806.    5.537  3.82E-07  1.25E-04  5.76E-18  1.88E-15  0.00E+00  0.00E+00  3.82E-07  1.25E-04  1.10E-02  0.00000
   1808.    5.531  3.37E-07  1.10E-04  3.82E-18  1.25E-15  0.00E+00  0.00E+00  3.37E-07  1.10E-04  1.10E-02  0.00000
   1810.    5.525  2.56E-07  8.39E-05  1.36E-17  4.47E-15  0.00E+00  0.00E+00  2.56E-07  8.39E-05  1.10E-02  0.00000
   1812.    5.519  2.82E-07  9.26E-05  3.23E-15  1.06E-12  0.00E+00  0.00E+00  2.82E-07  9.26E-05  1.10E-02  0.00000
   1814.    5.513  4.36E-07  1.44E-04  1.22E-13  4.01E-11  0.00E+00  0.00E+00  4.36E-07  1.44E-04  1.10E-02  0.00000
   1816.    5.507  4.44E-07  1.46E-04  1.73E-13  5.69E-11  0.00E+00  0.00E+00  4.44E-07  1.46E-04  1.10E-02  0.00000
   1818.    5.501  4.53E-07  1.50E-04  1.06E-12  3.51E-10  0.00E+00  0.00E+00  4.53E-07  1.50E-04  1.10E-02  0.00000
   1820.    5.495  4.72E-07  1.56E-04  1.29E-12  4.27E-10  0.00E+00  0.00E+00  4.72E-07  1.56E-04  1.10E-02  0.00000
   1822.    5.488  3.71E-07  1.23E-04  1.28E-13  4.26E-11  0.00E+00  0.00E+00  3.71E-07  1.23E-04  1.10E-02  0.00000
   1824.    5.482  2.53E-07  8.40E-05  2.44E-18  8.11E-16  0.00E+00  0.00E+00  2.53E-07  8.40E-05  1.10E-02  0.00000
   1826.    5.476  2.23E-07  7.42E-05  2.42E-18  8.08E-16  0.00E+00  0.00E+00  2.23E-07  7.42E-05  1.10E-02  0.00000
   1828.    5.470  2.25E-07  7.50E-05  1.23E-32  4.12E-30  0.00E+00  0.00E+00  2.25E-07  7.50E-05  1.10E-02  0.00000
   1830.    5.464  1.67E-07  5.58E-05  1.35E-32  4.53E-30  0.00E+00  0.00E+00  1.67E-07  5.58E-05  1.10E-02  0.00000
   1832.    5.459  2.65E-07  8.91E-05  4.77E-18  1.60E-15  0.00E+00  0.00E+00  2.65E-07  8.91E-05  1.10E-02  0.00000
   1834.    5.453  3.55E-07  1.19E-04  3.86E-17  1.30E-14  0.00E+00  0.00E+00  3.55E-07  1.19E-04  1.10E-02  0.00000
   1836.    5.447  3.12E-07  1.05E-04  2.43E-16  8.20E-14  0.00E+00  0.00E+00  3.12E-07  1.05E-04  1.10E-02  0.00000
   1838.    5.441  3.09E-07  1.04E-04  2.94E-16  9.93E-14  0.00E+00  0.00E+00  3.09E-07  1.04E-04  1.10E-02  0.00000
   1840.    5.435  3.62E-07  1.23E-04  1.86E-16  6.30E-14  0.00E+00  0.00E+00  3.62E-07  1.23E-04  1.10E-02  0.00000
   1842.    5.429  2.59E-07  8.80E-05  5.34E-17  1.81E-14  0.00E+00  0.00E+00  2.59E-07  8.80E-05  1.10E-02  0.00000
   1844.    5.423  1.49E-07  5.06E-05  7.92E-19  2.69E-16  0.00E+00  0.00E+00  1.49E-07  5.06E-05  1.10E-02  0.00000
   1846.    5.417  1.84E-07  6.28E-05  8.31E-19  2.83E-16  0.00E+00  0.00E+00  1.84E-07  6.28E-05  1.10E-02  0.00000
   1848.    5.411  2.67E-07  9.12E-05  2.14E-14  7.31E-12  0.00E+00  0.00E+00  2.67E-07  9.12E-05  1.10E-02  0.00000
   1850.    5.405  3.96E-07  1.36E-04  3.69E-12  1.26E-09  0.00E+00  0.00E+00  3.96E-07  1.36E-04  1.10E-02  0.00000
   1852.    5.400  4.52E-07  1.55E-04  4.19E-11  1.44E-08  0.00E+00  0.00E+00  4.52E-07  1.55E-04  1.10E-02  0.00004
   1854.    5.394  4.87E-07  1.68E-04  2.74E-10  9.42E-08  0.00E+00  0.00E+00  4.88E-07  1.68E-04  1.10E-02  0.00027
   1856.    5.388  4.84E-07  1.67E-04  3.13E-10  1.08E-07  0.00E+00  0.00E+00  4.84E-07  1.67E-04  1.10E-02  0.00031
   1858.    5.382  4.02E-07  1.39E-04  7.68E-11  2.65E-08  0.00E+00  0.00E+00  4.03E-07  1.39E-04  1.10E-02  0.00008
   1860.    5.376  3.72E-07  1.29E-04  3.82E-12  1.32E-09  0.00E+00  0.00E+00  3.72E-07  1.29E-04  1.10E-02  0.00000
   1862.    5.371  4.10E-07  1.42E-04  9.54E-12  3.31E-09  0.00E+00  0.00E+00  4.10E-07  1.42E-04  1.10E-02  0.00001
   1864.    5.365  3.72E-07  1.29E-04  5.50E-12  1.91E-09  0.00E+00  0.00E+00  3.72E-07  1.29E-04  1.10E-02  0.00001
   1866.    5.359  2.31E-07  8.03E-05  2.79E-14  9.71E-12  0.00E+00  0.00E+00  2.31E-07  8.03E-05  1.10E-02  0.00000
   1868.    5.353  1.37E-07  4.77E-05  6.49E-21  2.26E-18  0.00E+00  0.00E+00  1.37E-07  4.77E-05  1.10E-02  0.00000
   1870.    5.348  1.80E-07  6.30E-05  1.35E-16  4.71E-14  0.00E+00  0.00E+00  1.80E-07  6.30E-05  1.10E-02  0.00000
   1872.    5.342  3.47E-07  1.22E-04  2.93E-11  1.03E-08  0.00E+00  0.00E+00  3.47E-07  1.22E-04  1.10E-02  0.00003
   1874.    5.336  4.77E-07  1.67E-04  5.58E-10  1.96E-07  0.00E+00  0.00E+00  4.77E-07  1.68E-04  1.10E-02  0.00059
   1876.    5.330  5.01E-07  1.76E-04  1.89E-09  6.67E-07  0.00E+00  0.00E+00  5.03E-07  1.77E-04  1.10E-02  0.00201
   1878.    5.325  4.86E-07  1.71E-04  3.02E-09  1.07E-06  0.00E+00  0.00E+00  4.89E-07  1.72E-04  1.10E-02  0.00322
   1880.    5.319  4.93E-07  1.74E-04  5.02E-09  1.77E-06  0.00E+00  0.00E+00  4.98E-07  1.76E-04  1.10E-02  0.00539
   1882.    5.313  5.11E-07  1.81E-04  6.68E-09  2.37E-06  0.00E+00  0.00E+00  5.18E-07  1.84E-04  1.10E-02  0.00720
   1884.    5.308  3.86E-07  1.37E-04  1.76E-09  6.26E-07  0.00E+00  0.00E+00  3.88E-07  1.38E-04  1.10E-02  0.00191
   1886.    5.302  3.59E-07  1.28E-04  6.18E-12  2.20E-09  0.00E+00  0.00E+00  3.59E-07  1.28E-04  1.10E-02  0.00001
   1888.    5.297  3.12E-07  1.11E-04  9.36E-12  3.34E-09  0.00E+00  0.00E+00  3.12E-07  1.11E-04  1.10E-02  0.00001
   1890.    5.291  2.23E-07  7.96E-05  1.37E-11  4.91E-09  0.00E+00  0.00E+00  2.23E-07  7.96E-05  1.10E-02  0.00002
   1892.    5.285  3.26E-07  1.17E-04  5.68E-12  2.03E-09  0.00E+00  0.00E+00  3.26E-07  1.17E-04  1.10E-02  0.00001
   1894.    5.280  2.97E-07  1.07E-04  1.13E-12  4.06E-10  0.00E+00  0.00E+00  2.97E-07  1.07E-04  1.10E-02  0.00000
   1896.    5.274  2.98E-07  1.07E-04  2.20E-10  7.91E-08  0.00E+00  0.00E+00  2.98E-07  1.07E-04  1.10E-02  0.00025
   1898.    5.269  4.52E-07  1.63E-04  6.10E-09  2.20E-06  0.00E+00  0.00E+00  4.58E-07  1.65E-04  1.10E-02  0.00696
   1900.    5.263  5.11E-07  1.84E-04  1.41E-08  5.09E-06  0.00E+00  0.00E+00  5.25E-07  1.90E-04  1.10E-02  0.01613
  iv         1905
1                                             RADIANCE(WATTS/CM2-STER-XXX)
0  FREQ   WAVLEN    PATH THERMAL      SURFACE EMISSION    SURFACE REFLECTED     TOTAL RADIANCE   INTEGRAL    TOTAL
  (CM-1) (MICRN)    (CM-1)   (MICRN)    (CM-1)   (MICRN)    (CM-1)   (MICRN)    (CM-1)   (MICRN)    (CM-1)   TRANS

   1902.    5.258  4.52E-07  1.64E-04  6.83E-09  2.47E-06  0.00E+00  0.00E+00  4.59E-07  1.66E-04  1.10E-02  0.00783
   1904.    5.252  3.76E-07  1.36E-04  1.05E-09  3.81E-07  0.00E+00  0.00E+00  3.77E-07  1.37E-04  1.10E-02  0.00121
   1906.    5.247  3.49E-07  1.27E-04  1.96E-10  7.12E-08  0.00E+00  0.00E+00  3.49E-07  1.27E-04  1.10E-02  0.00023
   1908.    5.241  2.42E-07  8.81E-05  6.28E-11  2.29E-08  0.00E+00  0.00E+00  2.42E-07  8.82E-05  1.10E-02  0.00007
   1910.    5.236  2.48E-07  9.06E-05  5.73E-11  2.09E-08  0.00E+00  0.00E+00  2.48E-07  9.06E-05  1.10E-02  0.00007
   1912.    5.230  3.86E-07  1.41E-04  5.37E-10  1.96E-07  0.00E+00  0.00E+00  3.86E-07  1.41E-04  1.10E-02  0.00064
   1914.    5.225  4.16E-07  1.52E-04  6.42E-10  2.35E-07  0.00E+00  0.00E+00  4.16E-07  1.52E-04  1.10E-02  0.00077
   1916.    5.219  3.21E-07  1.18E-04  1.08E-10  3.96E-08  0.00E+00  0.00E+00  3.21E-07  1.18E-04  1.10E-02  0.00013
   1918.    5.214  1.93E-07  7.11E-05  1.57E-13  5.79E-11  0.00E+00  0.00E+00  1.93E-07  7.11E-05  1.10E-02  0.00000
   1920.    5.208  2.28E-07  8.40E-05  5.22E-15  1.93E-12  0.00E+00  0.00E+00  2.28E-07  8.40E-05  1.10E-02  0.00000
   1922.    5.203  2.08E-07  7.69E-05  4.47E-17  1.65E-14  0.00E+00  0.00E+00  2.08E-07  7.69E-05  1.10E-02  0.00000
   1924.    5.198  2.47E-07  9.14E-05  2.11E-10  7.79E-08  0.00E+00  0.00E+00  2.47E-07  9.15E-05  1.10E-02  0.00026
   1926.    5.192  4.07E-07  1.51E-04  4.12E-09  1.53E-06  0.00E+00  0.00E+00  4.11E-07  1.53E-04  1.10E-02  0.00515
   1928.    5.187  4.73E-07  1.76E-04  2.56E-08  9.50E-06  0.00E+00  0.00E+00  4.99E-07  1.85E-04  1.10E-02  0.03207
   1930.    5.181  4.82E-07  1.79E-04  4.71E-08  1.75E-05  0.00E+00  0.00E+00  5.29E-07  1.97E-04  1.10E-02  0.05932
   1932.    5.176  4.17E-07  1.56E-04  2.21E-08  8.24E-06  0.00E+00  0.00E+00  4.39E-07  1.64E-04  1.10E-02  0.02787
   1934.    5.171  4.12E-07  1.54E-04  1.67E-08  6.24E-06  0.00E+00  0.00E+00  4.28E-07  1.60E-04  1.10E-02  0.02135
   1936.    5.165  4.63E-07  1.74E-04  3.55E-08  1.33E-05  0.00E+00  0.00E+00  4.99E-07  1.87E-04  1.10E-02  0.04562
   1938.    5.160  4.45E-07  1.67E-04  1.87E-08  7.02E-06  0.00E+00  0.00E+00  4.64E-07  1.74E-04  1.10E-02  0.02407
   1940.    5.155  3.67E-07  1.38E-04  3.67E-09  1.38E-06  0.00E+00  0.00E+00  3.70E-07  1.39E-04  1.10E-02  0.00475
   1942.    5.149  2.16E-07  8.15E-05  8.18E-11  3.09E-08  0.00E+00  0.00E+00  2.16E-07  8.15E-05  1.10E-02  0.00011
   1944.    5.144  1.85E-07  7.01E-05  1.85E-14  6.99E-12  0.00E+00  0.00E+00  1.85E-07  7.01E-05  1.10E-02  0.00000
   1946.    5.139  2.42E-07  9.15E-05  1.09E-09  4.14E-07  0.00E+00  0.00E+00  2.43E-07  9.19E-05  1.10E-02  0.00146
   1948.    5.133  3.69E-07  1.40E-04  7.88E-09  2.99E-06  0.00E+00  0.00E+00  3.77E-07  1.43E-04  1.10E-02  0.01055
   1950.    5.128  4.29E-07  1.63E-04  3.16E-08  1.20E-05  0.00E+00  0.00E+00  4.61E-07  1.75E-04  1.10E-02  0.04259
   1952.    5.123  4.33E-07  1.65E-04  5.77E-08  2.20E-05  0.00E+00  0.00E+00  4.90E-07  1.87E-04  1.10E-02  0.07810
   1954.    5.118  3.58E-07  1.37E-04  2.50E-08  9.53E-06  0.00E+00  0.00E+00  3.83E-07  1.46E-04  1.10E-02  0.03383
   1956.    5.112  3.39E-07  1.30E-04  6.74E-09  2.58E-06  0.00E+00  0.00E+00  3.46E-07  1.32E-04  1.10E-02  0.00928
   1958.    5.107  4.05E-07  1.55E-04  4.27E-08  1.64E-05  0.00E+00  0.00E+00  4.48E-07  1.72E-04  1.10E-02  0.05901
   1960.    5.102  3.83E-07  1.47E-04  4.26E-08  1.64E-05  0.00E+00  0.00E+00  4.26E-07  1.64E-04  1.10E-02  0.05902
   1962.    5.097  3.78E-07  1.46E-04  2.29E-08  8.82E-06  0.00E+00  0.00E+00  4.01E-07  1.54E-04  1.10E-02  0.03210
   1964.    5.092  3.92E-07  1.51E-04  2.65E-08  1.02E-05  0.00E+00  0.00E+00  4.19E-07  1.62E-04  1.10E-02  0.03727
   1966.    5.086  2.53E-07  9.79E-05  4.40E-09  1.70E-06  0.00E+00  0.00E+00  2.58E-07  9.96E-05  1.10E-02  0.00620
   1968.    5.081  2.61E-07  1.01E-04  4.41E-09  1.71E-06  0.00E+00  0.00E+00  2.66E-07  1.03E-04  1.10E-02  0.00633
   1970.    5.076  3.85E-07  1.49E-04  5.92E-08  2.30E-05  0.00E+00  0.00E+00  4.44E-07  1.72E-04  1.10E-02  0.08522
   1972.    5.071  3.75E-07  1.46E-04  1.62E-07  6.32E-05  0.00E+00  0.00E+00  5.38E-07  2.09E-04  1.10E-02  0.23490
   1974.    5.066  3.47E-07  1.35E-04  1.90E-07  7.40E-05  0.00E+00  0.00E+00  5.36E-07  2.09E-04  1.10E-02  0.27598
   1976.    5.061  3.51E-07  1.37E-04  1.30E-07  5.09E-05  0.00E+00  0.00E+00  4.81E-07  1.88E-04  1.10E-02  0.19083
   1978.    5.056  3.36E-07  1.32E-04  1.87E-07  7.33E-05  0.00E+00  0.00E+00  5.24E-07  2.05E-04  1.10E-02  0.27629
   1980.    5.051  3.22E-07  1.26E-04  2.19E-07  8.60E-05  0.00E+00  0.00E+00  5.41E-07  2.12E-04  1.10E-02  0.32507
   1982.    5.045  3.44E-07  1.35E-04  1.76E-07  6.93E-05  0.00E+00  0.00E+00  5.21E-07  2.04E-04  1.10E-02  0.26326
   1984.    5.040  3.64E-07  1.43E-04  1.43E-07  5.62E-05  0.00E+00  0.00E+00  5.07E-07  1.99E-04  1.10E-02  0.21440
   1986.    5.035  3.55E-07  1.40E-04  5.93E-08  2.34E-05  0.00E+00  0.00E+00  4.14E-07  1.63E-04  1.11E-02  0.08938
   1988.    5.030  2.77E-07  1.10E-04  6.79E-09  2.68E-06  0.00E+00  0.00E+00  2.84E-07  1.12E-04  1.11E-02  0.01027
   1990.    5.025  2.51E-07  9.95E-05  2.19E-10  8.66E-08  0.00E+00  0.00E+00  2.52E-07  9.96E-05  1.11E-02  0.00033
   1992.    5.020  1.92E-07  7.61E-05  9.16E-11  3.64E-08  0.00E+00  0.00E+00  1.92E-07  7.61E-05  1.11E-02  0.00014
   1994.    5.015  2.86E-07  1.14E-04  1.81E-08  7.18E-06  0.00E+00  0.00E+00  3.04E-07  1.21E-04  1.11E-02  0.02819
   1996.    5.010  3.72E-07  1.48E-04  6.33E-08  2.52E-05  0.00E+00  0.00E+00  4.35E-07  1.73E-04  1.11E-02  0.09904
   1998.    5.005  3.35E-07  1.34E-04  4.60E-08  1.84E-05  0.00E+00  0.00E+00  3.81E-07  1.52E-04  1.11E-02  0.07229
   2000.    5.000  3.14E-07  1.26E-04  9.86E-08  3.94E-05  0.00E+00  0.00E+00  4.13E-07  1.65E-04  1.11E-02  0.15659
  iv         2005
1                                             RADIANCE(WATTS/CM2-STER-XXX)
0  FREQ   WAVLEN    PATH THERMAL      SURFACE EMISSION    SURFACE REFLECTED     TOTAL RADIANCE   INTEGRAL    TOTAL
  (CM-1) (MICRN)    (CM-1)   (MICRN)    (CM-1)   (MICRN)    (CM-1)   (MICRN)    (CM-1)   (MICRN)    (CM-1)   TRANS

   2002.    4.995  2.94E-07  1.18E-04  2.19E-07  8.76E-05  0.00E+00  0.00E+00  5.13E-07  2.05E-04  1.11E-02  0.34880
   2004.    4.990  2.75E-07  1.10E-04  2.47E-07  9.92E-05  0.00E+00  0.00E+00  5.22E-07  2.09E-04  1.11E-02  0.39646
   2006.    4.985  3.08E-07  1.24E-04  1.45E-07  5.84E-05  0.00E+00  0.00E+00  4.53E-07  1.82E-04  1.11E-02  0.23376
   2008.    4.980  3.12E-07  1.26E-04  3.66E-08  1.48E-05  0.00E+00  0.00E+00  3.49E-07  1.41E-04  1.11E-02  0.05943
   2010.    4.975  3.12E-07  1.26E-04  9.92E-08  4.01E-05  0.00E+00  0.00E+00  4.11E-07  1.66E-04  1.11E-02  0.16288
   2012.    4.970  3.03E-07  1.23E-04  1.84E-07  7.44E-05  0.00E+00  0.00E+00  4.87E-07  1.97E-04  1.11E-02  0.30325
   2014.    4.965  3.16E-07  1.28E-04  1.19E-07  4.83E-05  0.00E+00  0.00E+00  4.36E-07  1.77E-04  1.11E-02  0.19724
   2016.    4.960  2.49E-07  1.01E-04  2.16E-08  8.79E-06  0.00E+00  0.00E+00  2.71E-07  1.10E-04  1.11E-02  0.03594
   2018.    4.955  2.01E-07  8.17E-05  1.23E-10  5.03E-08  0.00E+00  0.00E+00  2.01E-07  8.17E-05  1.11E-02  0.00021
   2020.    4.950  2.87E-07  1.17E-04  3.25E-08  1.33E-05  0.00E+00  0.00E+00  3.19E-07  1.30E-04  1.11E-02  0.05528
   2022.    4.946  3.22E-07  1.32E-04  6.20E-08  2.53E-05  0.00E+00  0.00E+00  3.84E-07  1.57E-04  1.11E-02  0.10562
   2024.    4.941  3.15E-07  1.29E-04  7.38E-08  3.03E-05  0.00E+00  0.00E+00  3.89E-07  1.59E-04  1.11E-02  0.12693
   2026.    4.936  3.00E-07  1.23E-04  8.93E-08  3.67E-05  0.00E+00  0.00E+00  3.90E-07  1.60E-04  1.11E-02  0.15430
   2028.    4.931  2.53E-07  1.04E-04  1.66E-07  6.84E-05  0.00E+00  0.00E+00  4.19E-07  1.72E-04  1.11E-02  0.28995
   2030.    4.926  1.97E-07  8.11E-05  3.05E-07  1.26E-04  0.00E+00  0.00E+00  5.01E-07  2.07E-04  1.11E-02  0.53389
   2032.    4.921  1.80E-07  7.44E-05  3.19E-07  1.32E-04  0.00E+00  0.00E+00  4.99E-07  2.06E-04  1.11E-02  0.56205
   2034.    4.916  2.26E-07  9.33E-05  2.35E-07  9.71E-05  0.00E+00  0.00E+00  4.60E-07  1.90E-04  1.11E-02  0.41626
   2036.    4.912  2.41E-07  9.99E-05  2.11E-07  8.76E-05  0.00E+00  0.00E+00  4.52E-07  1.87E-04  1.11E-02  0.37753
   2038.    4.907  2.74E-07  1.14E-04  1.34E-07  5.58E-05  0.00E+00  0.00E+00  4.09E-07  1.70E-04  1.11E-02  0.24151
   2040.    4.902  2.67E-07  1.11E-04  6.03E-08  2.51E-05  0.00E+00  0.00E+00  3.27E-07  1.36E-04  1.11E-02  0.10890
   2042.    4.897  2.58E-07  1.08E-04  1.10E-08  4.57E-06  0.00E+00  0.00E+00  2.69E-07  1.12E-04  1.11E-02  0.01998
   2044.    4.892  2.66E-07  1.11E-04  7.37E-08  3.08E-05  0.00E+00  0.00E+00  3.40E-07  1.42E-04  1.11E-02  0.13571
   2046.    4.888  2.50E-07  1.05E-04  1.51E-07  6.31E-05  0.00E+00  0.00E+00  4.01E-07  1.68E-04  1.11E-02  0.27886
   2048.    4.883  1.94E-07  8.12E-05  2.52E-07  1.06E-04  0.00E+00  0.00E+00  4.45E-07  1.87E-04  1.11E-02  0.46931
   2050.    4.878  1.45E-07  6.07E-05  3.43E-07  1.44E-04  0.00E+00  0.00E+00  4.87E-07  2.05E-04  1.11E-02  0.64249
   2052.    4.873  1.48E-07  6.22E-05  3.33E-07  1.40E-04  0.00E+00  0.00E+00  4.81E-07  2.02E-04  1.11E-02  0.62789
   2054.    4.869  1.46E-07  6.16E-05  3.30E-07  1.39E-04  0.00E+00  0.00E+00  4.76E-07  2.01E-04  1.11E-02  0.62695
   2056.    4.864  1.18E-07  4.99E-05  3.68E-07  1.55E-04  0.00E+00  0.00E+00  4.86E-07  2.05E-04  1.11E-02  0.70328
   2058.    4.859  1.52E-07  6.46E-05  2.95E-07  1.25E-04  0.00E+00  0.00E+00  4.47E-07  1.89E-04  1.11E-02  0.56670
   2060.    4.854  2.29E-07  9.71E-05  1.31E-07  5.56E-05  0.00E+00  0.00E+00  3.60E-07  1.53E-04  1.11E-02  0.25347
   2062.    4.850  2.49E-07  1.06E-04  1.28E-07  5.45E-05  0.00E+00  0.00E+00  3.77E-07  1.60E-04  1.11E-02  0.25028
   2064.    4.845  2.30E-07  9.81E-05  6.23E-08  2.65E-05  0.00E+00  0.00E+00  2.93E-07  1.25E-04  1.11E-02  0.12173
   2066.    4.840  2.17E-07  9.27E-05  5.60E-08  2.39E-05  0.00E+00  0.00E+00  2.73E-07  1.17E-04  1.11E-02  0.11128
   2068.    4.836  1.87E-07  7.99E-05  2.25E-07  9.63E-05  0.00E+00  0.00E+00  4.12E-07  1.76E-04  1.11E-02  0.44925
   2070.    4.831  1.21E-07  5.17E-05  3.40E-07  1.46E-04  0.00E+00  0.00E+00  4.61E-07  1.98E-04  1.11E-02  0.68274
   2072.    4.826  1.54E-07  6.60E-05  2.65E-07  1.14E-04  0.00E+00  0.00E+00  4.19E-07  1.80E-04  1.11E-02  0.53512
   2074.    4.822  1.98E-07  8.53E-05  1.71E-07  7.35E-05  0.00E+00  0.00E+00  3.69E-07  1.59E-04  1.11E-02  0.34731
   2076.    4.817  1.69E-07  7.30E-05  2.46E-07  1.06E-04  0.00E+00  0.00E+00  4.16E-07  1.79E-04  1.11E-02  0.50474
   2078.    4.812  1.87E-07  8.08E-05  2.14E-07  9.25E-05  0.00E+00  0.00E+00  4.01E-07  1.73E-04  1.11E-02  0.44121
   2080.    4.808  1.80E-07  7.79E-05  2.15E-07  9.32E-05  0.00E+00  0.00E+00  3.95E-07  1.71E-04  1.11E-02  0.44709
   2082.    4.803  1.46E-07  6.31E-05  2.65E-07  1.15E-04  0.00E+00  0.00E+00  4.11E-07  1.78E-04  1.11E-02  0.55474
   2084.    4.798  1.11E-07  4.81E-05  3.23E-07  1.40E-04  0.00E+00  0.00E+00  4.34E-07  1.89E-04  1.11E-02  0.68035
   2086.    4.794  1.58E-07  6.90E-05  2.34E-07  1.02E-04  0.00E+00  0.00E+00  3.93E-07  1.71E-04  1.11E-02  0.49499
   2088.    4.789  2.25E-07  9.80E-05  1.08E-07  4.69E-05  0.00E+00  0.00E+00  3.32E-07  1.45E-04  1.11E-02  0.22881
   2090.    4.785  2.22E-07  9.72E-05  6.69E-08  2.92E-05  0.00E+00  0.00E+00  2.89E-07  1.26E-04  1.11E-02  0.14358
   2092.    4.780  1.93E-07  8.47E-05  1.60E-07  6.99E-05  0.00E+00  0.00E+00  3.53E-07  1.55E-04  1.11E-02  0.34605
   2094.    4.776  1.47E-07  6.45E-05  2.60E-07  1.14E-04  0.00E+00  0.00E+00  4.08E-07  1.79E-04  1.11E-02  0.56680
   2096.    4.771  1.36E-07  5.98E-05  2.60E-07  1.14E-04  0.00E+00  0.00E+00  3.96E-07  1.74E-04  1.11E-02  0.56971
   2098.    4.766  1.31E-07  5.76E-05  2.57E-07  1.13E-04  0.00E+00  0.00E+00  3.88E-07  1.71E-04  1.11E-02  0.56793
   2100.    4.762  1.29E-07  5.71E-05  2.54E-07  1.12E-04  0.00E+00  0.00E+00  3.84E-07  1.69E-04  1.11E-02  0.56475
  iv         2105
1                                             RADIANCE(WATTS/CM2-STER-XXX)
0  FREQ   WAVLEN    PATH THERMAL      SURFACE EMISSION    SURFACE REFLECTED     TOTAL RADIANCE   INTEGRAL    TOTAL
  (CM-1) (MICRN)    (CM-1)   (MICRN)    (CM-1)   (MICRN)    (CM-1)   (MICRN)    (CM-1)   (MICRN)    (CM-1)   TRANS

   2102.    4.757  9.04E-08  4.00E-05  3.20E-07  1.41E-04  0.00E+00  0.00E+00  4.10E-07  1.81E-04  1.11E-02  0.71543
   2104.    4.753  7.90E-08  3.50E-05  3.32E-07  1.47E-04  0.00E+00  0.00E+00  4.11E-07  1.82E-04  1.11E-02  0.74797
   2106.    4.748  1.25E-07  5.55E-05  2.50E-07  1.11E-04  0.00E+00  0.00E+00  3.75E-07  1.66E-04  1.11E-02  0.56542
   2108.    4.744  1.16E-07  5.14E-05  2.69E-07  1.20E-04  0.00E+00  0.00E+00  3.85E-07  1.71E-04  1.11E-02  0.61547
   2110.    4.739  6.79E-08  3.02E-05  3.43E-07  1.53E-04  0.00E+00  0.00E+00  4.11E-07  1.83E-04  1.11E-02  0.78966
   2112.    4.735  8.53E-08  3.80E-05  3.11E-07  1.39E-04  0.00E+00  0.00E+00  3.96E-07  1.77E-04  1.11E-02  0.71952
   2114.    4.730  1.71E-07  7.62E-05  1.35E-07  6.02E-05  0.00E+00  0.00E+00  3.05E-07  1.36E-04  1.11E-02  0.31290
   2116.    4.726  1.72E-07  7.72E-05  1.39E-07  6.23E-05  0.00E+00  0.00E+00  3.11E-07  1.39E-04  1.11E-02  0.32737
   2118.    4.721  8.23E-08  3.69E-05  3.11E-07  1.40E-04  0.00E+00  0.00E+00  3.93E-07  1.76E-04  1.11E-02  0.73561
   2120.    4.717  8.22E-08  3.69E-05  3.05E-07  1.37E-04  0.00E+00  0.00E+00  3.87E-07  1.74E-04  1.11E-02  0.72390
   2122.    4.713  1.31E-07  5.88E-05  2.32E-07  1.04E-04  0.00E+00  0.00E+00  3.62E-07  1.63E-04  1.11E-02  0.55485
   2124.    4.708  1.40E-07  6.31E-05  2.09E-07  9.43E-05  0.00E+00  0.00E+00  3.49E-07  1.57E-04  1.11E-02  0.50424
   2126.    4.704  8.25E-08  3.73E-05  2.89E-07  1.31E-04  0.00E+00  0.00E+00  3.71E-07  1.68E-04  1.11E-02  0.70229
   2128.    4.699  4.33E-08  1.96E-05  3.52E-07  1.59E-04  0.00E+00  0.00E+00  3.95E-07  1.79E-04  1.11E-02  0.85932
   2130.    4.695  4.86E-08  2.20E-05  3.41E-07  1.55E-04  0.00E+00  0.00E+00  3.90E-07  1.77E-04  1.11E-02  0.84000
   2132.    4.690  4.72E-08  2.14E-05  3.40E-07  1.55E-04  0.00E+00  0.00E+00  3.87E-07  1.76E-04  1.11E-02  0.84336
   2134.    4.686  6.48E-08  2.95E-05  3.03E-07  1.38E-04  0.00E+00  0.00E+00  3.68E-07  1.68E-04  1.11E-02  0.75581
   2136.    4.682  1.47E-07  6.69E-05  1.43E-07  6.51E-05  0.00E+00  0.00E+00  2.89E-07  1.32E-04  1.11E-02  0.35772
   2138.    4.677  1.85E-07  8.47E-05  8.31E-08  3.80E-05  0.00E+00  0.00E+00  2.68E-07  1.23E-04  1.11E-02  0.21051
   2140.    4.673  1.38E-07  6.32E-05  1.82E-07  8.33E-05  0.00E+00  0.00E+00  3.20E-07  1.47E-04  1.11E-02  0.46429
   2142.    4.669  7.54E-08  3.46E-05  2.87E-07  1.31E-04  0.00E+00  0.00E+00  3.62E-07  1.66E-04  1.11E-02  0.73557
   2144.    4.664  9.28E-08  4.26E-05  2.45E-07  1.13E-04  0.00E+00  0.00E+00  3.38E-07  1.55E-04  1.11E-02  0.63349
   2146.    4.660  1.38E-07  6.38E-05  1.71E-07  7.88E-05  0.00E+00  0.00E+00  3.10E-07  1.43E-04  1.11E-02  0.44482
   2148.    4.655  1.13E-07  5.20E-05  2.17E-07  1.00E-04  0.00E+00  0.00E+00  3.30E-07  1.52E-04  1.11E-02  0.56993
   2150.    4.651  7.04E-08  3.26E-05  2.80E-07  1.30E-04  0.00E+00  0.00E+00  3.51E-07  1.62E-04  1.11E-02  0.73983
   2152.    4.647  8.60E-08  3.98E-05  2.47E-07  1.15E-04  0.00E+00  0.00E+00  3.33E-07  1.54E-04  1.11E-02  0.65666
   2154.    4.643  8.32E-08  3.86E-05  2.48E-07  1.15E-04  0.00E+00  0.00E+00  3.31E-07  1.54E-04  1.11E-02  0.66418
   2156.    4.638  7.66E-08  3.56E-05  2.60E-07  1.21E-04  0.00E+00  0.00E+00  3.37E-07  1.56E-04  1.11E-02  0.69989
   2158.    4.634  6.31E-08  2.94E-05  2.76E-07  1.28E-04  0.00E+00  0.00E+00  3.39E-07  1.58E-04  1.11E-02  0.74808
   2160.    4.630  7.94E-08  3.70E-05  2.48E-07  1.16E-04  0.00E+00  0.00E+00  3.27E-07  1.53E-04  1.11E-02  0.67620
   2162.    4.625  1.28E-07  5.99E-05  1.59E-07  7.44E-05  0.00E+00  0.00E+00  2.87E-07  1.34E-04  1.11E-02  0.43715
   2164.    4.621  8.30E-08  3.89E-05  2.31E-07  1.08E-04  0.00E+00  0.00E+00  3.14E-07  1.47E-04  1.11E-02  0.64060
   2166.    4.617  4.46E-08  2.09E-05  2.93E-07  1.37E-04  0.00E+00  0.00E+00  3.37E-07  1.58E-04  1.11E-02  0.81557
   2168.    4.613  3.70E-08  1.74E-05  3.00E-07  1.41E-04  0.00E+00  0.00E+00  3.37E-07  1.58E-04  1.11E-02  0.84112
   2170.    4.608  5.08E-08  2.39E-05  2.74E-07  1.29E-04  0.00E+00  0.00E+00  3.24E-07  1.53E-04  1.11E-02  0.77249
   2172.    4.604  6.53E-08  3.08E-05  2.51E-07  1.18E-04  0.00E+00  0.00E+00  3.16E-07  1.49E-04  1.11E-02  0.71389
   2174.    4.600  4.35E-08  2.06E-05  2.82E-07  1.33E-04  0.00E+00  0.00E+00  3.26E-07  1.54E-04  1.11E-02  0.80821
   2176.    4.596  3.56E-08  1.69E-05  2.90E-07  1.37E-04  0.00E+00  0.00E+00  3.26E-07  1.54E-04  1.11E-02  0.83743
   2178.    4.591  3.43E-08  1.63E-05  2.89E-07  1.37E-04  0.00E+00  0.00E+00  3.24E-07  1.54E-04  1.11E-02  0.84099
   2180.    4.587  5.68E-08  2.70E-05  2.51E-07  1.19E-04  0.00E+00  0.00E+00  3.08E-07  1.46E-04  1.11E-02  0.73533
   2182.    4.583  5.55E-08  2.64E-05  2.51E-07  1.19E-04  0.00E+00  0.00E+00  3.06E-07  1.46E-04  1.11E-02  0.73955
   2184.    4.579  5.46E-08  2.61E-05  2.52E-07  1.20E-04  0.00E+00  0.00E+00  3.07E-07  1.46E-04  1.11E-02  0.74728
   2186.    4.575  8.64E-08  4.13E-05  1.99E-07  9.53E-05  0.00E+00  0.00E+00  2.86E-07  1.37E-04  1.11E-02  0.59551
   2188.    4.570  7.45E-08  3.57E-05  2.15E-07  1.03E-04  0.00E+00  0.00E+00  2.89E-07  1.38E-04  1.11E-02  0.64617
   2190.    4.566  4.66E-08  2.23E-05  2.57E-07  1.23E-04  0.00E+00  0.00E+00  3.03E-07  1.45E-04  1.11E-02  0.77784
   2192.    4.562  4.83E-08  2.32E-05  2.51E-07  1.21E-04  0.00E+00  0.00E+00  2.99E-07  1.44E-04  1.11E-02  0.76529
   2194.    4.558  5.00E-08  2.41E-05  2.45E-07  1.18E-04  0.00E+00  0.00E+00  2.95E-07  1.42E-04  1.11E-02  0.75187
   2196.    4.554  3.23E-08  1.56E-05  2.68E-07  1.29E-04  0.00E+00  0.00E+00  3.00E-07  1.45E-04  1.11E-02  0.82815
   2198.    4.550  4.47E-08  2.16E-05  2.47E-07  1.19E-04  0.00E+00  0.00E+00  2.92E-07  1.41E-04  1.11E-02  0.76945
   2200.    4.545  5.83E-08  2.82E-05  2.23E-07  1.08E-04  0.00E+00  0.00E+00  2.81E-07  1.36E-04  1.11E-02  0.69993
0INTEGRATED ABSORPTION FROM    2 TO 2200 CM-1 =   1718.00 CM-1
 AVERAGE TRANSMITTANCE =0.2184

0INTEGRATED RADIANCE =  1.113E-02 WATTS CM-2 STER-1
 MINIMUM RADIANCE    =  1.196E-09 WATTS CM-2 STER-1 (CM-1)-1 AT        2.0 CM-1
 MAXIMUM RADIANCE    =  1.379E-05 WATTS CM-2 STER-1 (CM-1)-1 AT      656.0 CM-1
 BOUNDARY TEMPERATURE =     299.70 K
 BOUNDARY EMISSIVITY =       0.971
0 CARD 5 *****    0